Time,Fp1,Fp2,F3,F4,C3,C4,O1,O2
0.0,0.018527618202675244,0.022428598694201097,0.10609063817019122,-0.010090092108867414,-0.16071952567450826,-0.056853414548387396,-0.015166387295579934,0.02863955173153847
0.00390625,0.5121761119426785,0.6175136508113821,0.6117428855102096,0.24636033545546074,0.44300819525801227,0.5378969106645178,0.2857725687947943,0.43965983120444607
0.0078125,0.9478566101252929,0.8793383531241536,0.8371361093606918,0.8811832906203285,0.7496692886366811,0.873628671972078,0.8397577140859468,0.9700810020035487
0.01171875,1.2327619955955373,1.2886210279303416,1.0951099311902308,1.271225735127846,1.274285604506929,1.3412644392036914,1.106236844998152,1.29570946005009
0.015625,1.382117620283514,1.485664365175752,1.4433672601684795,1.662520658809884,1.4146352748286541,1.083943889861224,1.273043651359614,1.5210899445243877
0.01953125,1.4176720852915734,1.482263578446951,1.6099702191027145,1.4516922865249757,1.446007550268437,1.4520117908367691,1.7245510314145278,1.640431688063932
0.0234375,1.4741250898518374,1.4764551609361405,1.4997880817163045,1.2679136914460576,1.695973940019863,1.4875725309775476,1.443451398005658,1.4397430676626328
0.02734375,1.3254392855556991,1.4647143390358657,1.4474390061075642,1.1708880857546173,1.4214528313658032,1.4223548498946774,1.2337223634660748,1.2136839448869745
0.03125,1.012007828469973,1.0761315541045489,1.4424057970609567,1.1009184838613768,1.1442473629177405,1.244188624057013,1.1351049696541642,1.2017512806254511
0.03515625,0.8333034419783711,1.0560535362261774,1.0187767962929049,1.0660400498634162,1.0723006496812997,1.0500175536509175,1.0316511099762629,0.9114111264146637
0.0390625,0.7534389230482155,0.8312773456010749,0.914420594440827,0.8046961276057927,0.7312913146702271,0.8380966235593656,0.7771051158741443,0.9784144211331212
0.04296875,0.5292070612397064,0.6365525759930837,0.7461754153552805,0.8154391459114492,0.6357225738870811,0.6377007081078904,0.7804129089976137,0.6564800010301326
0.046875,0.4877526373196974,0.5822763625443506,0.6057307330061662,0.5489113226716086,0.5233462503081542,0.577635663487063,0.640560363332474,0.4967412108034178
0.05078125,0.3959885618791054,0.3151666779666922,0.47288386426262224,0.29436449886664695,0.5331192018014936,0.5743517816464446,0.5197642175364268,0.4835873190287245
0.0546875,0.2857477776006829,0.3394714381378789,0.21301685038494844,0.21952506923451615,0.30744936562235625,0.29224557748636204,0.2748851933078269,0.19895230712357884
0.05859375,-0.14886915970567038,0.15999054497076942,0.11594721368580975,0.2052649564314672,0.20888960821737915,0.14570136606272277,0.21243719157530958,0.2610541878493938
0.0625,-0.01759770343510434,0.0408381953131656,-0.13494036558202416,-0.09256531717564068,-0.1838762754844353,0.08761446243948065,0.07783363219178016,0.13232727816988177
0.06640625,-0.23501232483299866,-0.34356990772902424,-0.32504380997608456,-0.2218522674164714,-0.32351167553435645,-0.21972233994055496,-0.29645131435891553,-0.1416947811670129
0.0703125,-0.49405610305935543,-0.4927679195654156,-0.53329091012273,-0.3105008812754657,-0.3724233918037845,-0.410321242230713,-0.5553429512162715,-0.34053343055925855
0.07421875,-0.791515669281943,-0.7736781652360915,-0.8687257066285617,-0.8594949046205098,-0.8103953125827105,-1.0086303058406432,-0.8179181782367907,-0.8479655060548735
0.078125,-1.1061953152573425,-0.9368045143349617,-0.8155235004776672,-1.029997146473227,-0.9790751105244838,-1.1022427628089801,-0.9352024200299276,-1.0413684748019432
0.08203125,-1.2416420152652914,-1.1494718754282032,-1.0861640218579287,-1.0096701234881722,-1.1773488046503666,-1.2897546534151925,-1.1845921409037117,-1.2367358988247004
0.0859375,-1.1518966549164242,-1.128086738617795,-1.118474169957251,-1.1561844133809007,-1.0443430156998608,-1.0553219786386752,-1.020993201429061,-1.2297947015449595
0.08984375,-1.115683241697023,-0.9604592381265733,-1.090384009830309,-1.2097045552668493,-1.0991088759536416,-0.912491927359571,-0.8422654214180916,-1.1654768625170677
0.09375,-0.836063495128069,-0.6582352190729998,-0.7544265709308213,-0.9750381863217465,-0.9246082388158873,-0.6796028297479728,-0.8172921571782746,-0.6761981845287933
0.09765625,-0.32488830132767,-0.4122060050549394,-0.7218021263487694,-0.3350750898559987,-0.4394552144539484,-0.45499177124553386,-0.3906742867815979,-0.44097740381808087
0.1015625,-0.15737809710412018,-0.15053013386332667,-0.13690009422625957,-0.19416611100943687,-0.38943419387253253,-0.29864671373928864,-0.1957421109280873,-0.2163625120615893
0.10546875,0.18716063525908683,0.08838894439056812,-0.004454849857494642,0.0071482571773738846,0.23228342926566212,0.13514153657361241,0.1331705679372083,0.14192366017092745
0.109375,0.45716301204535553,0.283411155918069,0.5444842043344984,0.3370827589131715,0.383862377448073,0.45482313513023775,0.5025940462156142,0.42541789972806476
0.11328125,0.6083453404520871,0.6064321277458153,0.4813360592742068,0.4447144738277042,0.5044319738157791,0.4869691401858528,0.615030500952172,0.5558541664240542
0.1171875,0.6348962012672851,0.6439149220443713,0.6533999592817076,0.661441359065687,0.7097592731664587,0.6141813548689758,0.6822517366240739,0.5679231984890458
0.12109375,0.6916615827259395,0.5025228169918314,0.7214932808157997,0.4797804036132508,0.6134975742587403,0.6676885240551113,0.633295762366531,0.7356163991458657
0.125,0.6181800968450082,0.5880247060396558,0.3358384501562972,0.635561676310352,0.4700523592522218,0.24199218897767788,0.39259358657817284,0.5496866639040537
0.12890625,0.14853166401757806,0.34523659515751276,0.4982488790401216,0.28574208828460257,0.5603400715534794,0.13375239405059886,0.48752716098764093,0.29659187344598426
0.1328125,0.09187792959914587,0.22558342868900896,0.07068693712001485,0.041179627702041144,0.060776563482753176,0.22018888160788444,0.3724731914037313,0.1180890928959115
0.13671875,-0.10663190977941595,-0.1446253210587247,0.03310962663086811,0.024098406659913113,-0.09655255269457293,-0.21062418997801194,0.036520478273090774,0.09982905143893589
0.140625,-0.1772680915123072,-0.30256046535031456,-0.1875958144833297,-0.03538262744561546,-0.03506259465953815,0.020999798406050485,-0.14779993834771005,-0.21739640799096144
0.14453125,-0.30531804527455586,-0.20485468613616467,-0.1883005797501349,-0.1285759799648284,-0.13071632996564225,-0.09388711361081145,-0.257782017640277,-0.10598576225728323
0.1484375,-0.2364957144847424,-0.24955153009468575,-0.3309721103441394,-0.1806257857598195,-0.2524190297238882,-0.2895937637550058,-0.39838487802439815,-0.31331894559785606
0.15234375,-0.2733406145773618,-0.38800244560475294,-0.14396734161241692,-0.4239007349500838,-0.37126810782001574,-0.4009133415827066,-0.34506020655926595,-0.3224781338962282
0.15625,-0.4229622342496502,-0.15185035181151257,-0.3469985685935592,-0.35087241186079676,-0.23357282544849614,-0.27028228778148067,-0.3275725186840564,-0.3480839846814295
0.16015625,-0.3798852029867431,-0.3666546201227212,-0.48458146749606695,-0.43006921240465323,-0.5977284340474801,-0.42875658116365123,-0.2718355086861736,-0.3331675950722711
0.1640625,-0.5945705028689062,-0.5467890507078703,-0.33075667012836274,-0.7380350046853699,-0.5912585436569044,-0.5439878344470188,-0.3939444784310685,-0.6126561359451846
0.16796875,-0.5655405422080167,-0.5326949593900154,-0.6913321923141229,-0.569509738934538,-0.701743081777625,-0.7059744459187621,-0.7545470486114148,-0.6842168672732568
0.171875,-0.727841604490896,-0.8436749816801655,-0.7473816535065947,-0.8200298384023531,-0.727206804513028,-0.7325786140482318,-0.7379880255023825,-0.6644621148822756
0.17578125,-0.8326670712767041,-0.7663602507542601,-0.7564913630723701,-0.6805637845211854,-0.680004652937046,-1.0090457710048044,-0.798023113138225,-0.7638669375818152
0.1796875,-0.801024518341945,-0.896961792924061,-0.8635734095072214,-0.7517799369836904,-0.8748753883052689,-0.9775420268218975,-0.8053946083569766,-0.9947208859954477
0.18359375,-0.744728779044982,-0.7795506280971823,-0.7627942410754761,-0.8981265632356327,-0.869990938805685,-0.7643306404991095,-0.7836976094012135,-0.7371605073369691
0.1875,-0.5802389883112614,-0.6283043110868215,-0.5463572587653144,-0.6060208700931756,-0.5987148974153285,-0.6364685087739788,-0.5688988651537599,-0.746723647729423
0.19140625,-0.30411794336767684,-0.2674078266592199,-0.3039207578983738,-0.5573744149000261,-0.2788937291879563,-0.2987443731111487,-0.4300634043654612,-0.3908943006947043
0.1953125,-0.07959529874644296,-0.023000996066590885,0.04156926045909119,-0.15877008479364943,0.018577905446593553,0.006448751279378877,-0.014083560753704804,0.04571586145009651
0.19921875,0.32681176628237896,0.5302853476356074,0.30438908327180186,0.35189344953078633,0.5599779094310041,0.5398810600437358,0.36523561860247405,0.41408477185007103
0.203125,0.7063052831145158,0.6512991921794772,0.6997088868261864,0.8398286010064911,0.6611515176052614,0.6037337520055578,0.8436697075228675,0.8174168625586511
0.20703125,1.2179171918871277,1.228138123383421,1.0751480182773123,1.0809001975471169,1.1883965017581382,1.2675748242911173,1.012504040675482,0.9898274451306059
0.2109375,1.4012076771320816,1.4187300198386592,1.3403270690325328,1.4651642614077425,1.5219605967867254,1.6064694193020437,1.4571571774202248,1.3143508216069462
0.21484375,1.5962730437093482,1.587395516936246,1.455028617404579,1.6690861384824713,1.5658611223803194,1.5321071558410984,1.4409110773143536,1.5844670285831706
0.21875,1.5865034449047943,1.5386810005622236,1.5922854186726096,1.5057973863182645,1.5444844229606882,1.628857243843644,1.6282246060479078,1.6692725544281666
0.22265625,1.5280670148961613,1.4353022768697432,1.3600363567598186,1.5269671492803332,1.442928009220961,1.4578305751883731,1.445303263139956,1.442927002729512
0.2265625,1.4184084095853795,1.3346928321038636,1.350356588962039,1.2251968216395834,1.3091071516749795,1.2470144676703063,1.5229849713863375,1.4783846820459425
0.23046875,1.0472759027573662,1.0672132568411121,1.079962294566862,1.0638235615932266,1.0772220753078254,1.1581289301023203,1.1267844135364824,1.0724287824428242
0.234375,0.7052717168828535,0.7049968064481271,0.9081847133621677,0.730369878045363,0.6456636463865846,0.9328679194355277,0.6859544348126941,0.7304454682832854
0.23828125,0.37241850309481617,0.5342634869684789,0.6147251617027629,0.5922076064499804,0.5170390959725961,0.5394882517900894,0.48699971406002507,0.4886739042710826
0.2421875,0.46074950505865897,0.44033785371548007,0.3968450187150814,0.287628283397029,0.32447634684487076,0.4018404863059099,0.3502961021425981,0.34955215952786595
0.24609375,0.2646802678064392,0.27268044246860734,0.2094336910860096,0.13653956270761058,0.23872921894623272,0.22654108287356137,0.1739890433176517,0.24165149522692375
0.25,0.06558827017501043,0.16753883730483238,0.1596018283138938,0.04299384443386236,-0.04972657320384225,-0.051194987905439276,-0.030537833864127933,-0.02845975675795863
0.25390625,-0.03528043149788121,-0.28301202342840553,-0.2711965658040366,-0.13635218776554658,-0.23964648606218375,-0.23282861873442276,-0.1877845870627966,-0.023202601209496826
0.2578125,-0.21444937795036556,-0.5342914533186429,-0.3514039391432251,-0.4443296906021119,-0.43764615966505144,-0.3337989040630593,-0.3347969013902348,-0.37920847389617074
0.26171875,-0.6812602315396662,-0.5199557862195153,-0.6790491585662902,-0.5139195869502978,-0.7011592833290596,-0.6378594823748123,-0.6744748911024332,-0.5895902368292176
0.265625,-0.8963072062547819,-0.726605204970631,-0.7971087518167709,-1.018723010427394,-0.9721436601382871,-1.0703784413662598,-0.8390654284153803,-0.9913930971780205
0.26953125,-1.0458296420433593,-1.0837135356393592,-1.1479600307511313,-1.1282325148725447,-1.2703759991812305,-1.139894231218805,-1.1460374058472103,-1.1565236557682619
0.2734375,-1.2857592255800148,-1.312075230004378,-1.37929773993099,-1.2406177113840937,-1.3938294168139467,-1.3571439239149399,-1.4402626436698656,-1.343998159216168
0.27734375,-1.460169743136519,-1.4640435003375016,-1.4365822675136717,-1.5223290029369598,-1.5406403399301403,-1.2617612773173934,-1.589994582995378,-1.4765682684976942
0.28125,-1.7449089501917971,-1.4639280333962252,-1.581654906372532,-1.8044360424386683,-1.5443676622910387,-1.6248809725882254,-1.4850982393026426,-1.4959782904009606
0.28515625,-1.5140388743265076,-1.6311106194082385,-1.6840682439093826,-1.500674426113693,-1.491407800538738,-1.7875701777050974,-1.513245486018993,-1.5401806804358558
0.2890625,-1.383039156736234,-1.405875266361988,-1.3796790144548692,-1.4000360828887242,-1.2713293927205735,-1.5072653971720704,-1.25190364150884,-1.4047330345058955
0.29296875,-1.2461061395877489,-1.1218212456921428,-1.236560631862626,-1.2728514484878977,-1.0775156741142606,-1.0903315655164296,-0.972550986959925,-1.1453313623145658
0.296875,-1.0068998207389201,-0.7407474786336308,-0.9797332345561718,-0.8716418894746685,-0.8143219371948879,-0.7539858260659926,-0.8726549789149995,-0.7274641068291247
0.30078125,-0.4016020285412643,-0.3992371117887731,-0.307664417617005,-0.2857332174232511,-0.44214076377127953,-0.5575746057924237,-0.42934370788621545,-0.3577818168945187
0.3046875,0.042801088540914356,0.009714395112302395,0.08914205877071214,0.13417291802388928,0.06318816382760886,0.03529313135242397,-0.0889937268029761,-0.05328493230613732
0.30859375,0.3364014838195119,0.3674058995670769,0.3161115754745875,0.3281808236749688,0.4263774485391818,0.295692221586909,0.41977864911301516,0.28097893360605236
0.3125,0.6281872205289599,0.6181630610282653,0.7161625101616849,0.7076944868712339,0.7671537682208858,0.667842339699543,0.8504681420942442,0.6061650571563691
0.31640625,0.9868963903671734,0.8380944143716939,0.785712071443472,0.7824685514338063,0.8186025586482858,0.847347237723599,0.9461453190158454,0.7684890881442747
0.3203125,0.7939399199130348,0.8370057022517805,0.9665347734180452,0.9460476733756374,1.0195361553301154,0.8767541298607939,0.9095166885592848,0.8881527044317151
0.32421875,0.8516469886863974,0.9744319131204264,0.871249076409032,0.9161337155021565,0.9191984093374781,0.8267308282756277,0.9383327156828685,0.9523897872189926
0.328125,0.829664883238131,0.8848592350662127,0.9202560836649414,0.7650619032389688,0.9133446759271934,0.8186437672791644,0.7037527959013423,0.7086725690665076
0.33203125,0.677593698182384,0.6996549207219214,0.7072715689791522,0.715523897859041,0.5227949580626006,0.41914150508443415,0.5809776309567193,0.47460768335214965
0.3359375,0.5040392388695218,0.5688324848150899,0.521895756106414,0.4473857453197961,0.5570935893925106,0.49628395424170363,0.5640820501452065,0.5604472039560924
0.33984375,0.12231321577202947,0.384178312821132,0.37310250195805394,0.5120657166637305,0.5301268312164285,0.5808582574951058,0.3155799184065543,0.41170112117767516
0.34375,0.42061346483576656,0.2677929740184644,0.31039606488826255,0.44481416977394195,0.32951926556083133,0.45420984425389854,0.40026284102923654,0.3276690575560219
0.34765625,0.4403416399989846,0.11960270780509202,0.20304277480644933,0.38430044011621867,0.2130900282390486,0.3980663539147867,0.22742524168275452,0.25229608813726534
0.3515625,0.18802054077871175,0.2528804640840996,0.24537335265710197,0.30920945747032275,0.3861424967049738,0.2876362499278262,0.34003594433306544,0.24889430805298168
0.35546875,0.21112582783007777,0.12765625589064397,0.11642055673855828,0.27301205229292547,0.289235950931517,0.18234367989812295,0.31595183632139595,0.24286104965069738
0.359375,0.33733875623685705,0.2673617835698163,0.17928801959143315,0.05745634222653202,0.12222509585974911,0.15658315973986572,0.09530400212891874,0.19576860851643182
0.36328125,0.014621117176562021,0.04759947714818183,0.060833863872320995,-0.05488421542470076,-0.08732482260269774,0.009838203668418566,-0.054187427577597286,-0.1332287556329434
0.3671875,-0.323402498862046,-0.228562749057413,-0.11436418801243406,-0.1276480524298671,-0.17782325920045852,-0.1694436571994702,-0.008151266929610768,-0.3021535007287153
0.37109375,-0.4094492862586996,-0.37983713857396517,-0.33352265400505654,-0.3377483602361357,-0.3785097333286786,-0.30207712351962185,-0.46113026918534417,-0.15975156051589223
0.375,-0.6054439383123631,-0.5769663262694926,-0.5055344615767446,-0.46332204235315555,-0.4988721237127098,-0.6270003355383789,-0.4728354513320184,-0.4573503757672117
0.37890625,-0.6460946695098398,-0.709115850785384,-0.6095063951389826,-0.5728287529933783,-0.6412231478899074,-0.34101761686617027,-0.5893804766682825,-0.66299138310709
0.3828125,-0.6286531950906502,-0.7748478803375349,-0.742467195709344,-0.6312295570825746,-0.5545221999278562,-0.7324997618957205,-0.5951585591855924,-0.729988513856902
0.38671875,-0.7214482672687524,-0.7175008721653638,-0.6142066566632545,-0.5631176797012549,-0.5392850680113793,-0.6988007420658505,-0.5260196830005253,-0.41453168539241214
0.390625,-0.4071909025087223,-0.4015711299168377,-0.3137014388700841,-0.3511564596503613,-0.3663165200164504,-0.433837407298796,-0.45107510699974757,-0.5009227845965682
0.39453125,-0.22382422470013563,0.08169814001931724,-0.09383264431460954,-0.3891837249210166,-0.1621088651764765,-0.14698607215088752,-0.03968220893898007,-0.08322297053316416
0.3984375,0.3436466060482439,0.14927233755855343,0.11602264004459134,0.08869040374493709,0.25813783123655165,0.10212500993566004,0.09783475902991798,0.022213855883509354
0.40234375,0.608485608334819,0.44276503380007387,0.33739357169359047,0.7464174691295509,0.36835446573494324,0.6167196835041425,0.5884528409134956,0.5591721754086894
0.40625,0.834154447225605,0.7813187090538803,0.7899963855728814,0.6968659801124202,0.7331534890116806,0.7340397144029286,0.7112698738971712,0.7958979802687002
0.41015625,0.8987453267765944,0.8875442234449492,1.0093474298087313,0.9835531030924389,0.8814810501150357,0.9990463108773667,1.1584264043675605,1.1335511540020158
0.4140625,1.027090929342247,1.336531231989916,1.2512769001819797,1.1949418526090028,1.1211978429669505,1.0653165721667783,1.0813851055995964,1.0059714731081253
0.41796875,1.2165985492473936,1.2534087730092238,1.0878586662837104,1.100443955036207,1.0606735080579421,1.1389182433342335,1.06969216618223,1.1686515853207264
0.421875,0.9452256784328251,0.9984898909519381,1.1456631663801913,0.8511408100147531,1.056797647971585,0.82595504005621,1.147623934023643,0.9628890085902975
0.42578125,0.9447281464598382,0.931001627467518,0.776358518587422,0.6714985464783175,0.6984129834164827,0.8734156253967953,0.8318524340301333,0.9569693984626877
0.4296875,0.449173563106889,0.6483016784382217,0.602397116365196,0.5335898298707882,0.4818839695248488,0.6712307761704556,0.44732992066115307,0.5370199962012263
0.43359375,0.39602683514645054,0.40538538629057,0.21285790976214677,0.14247524055974709,0.18465643875319432,0.3161201803631534,0.3677301079065244,0.20206398659972713
0.4375,-0.01722431071218003,0.026627761767688222,-0.05068456004515673,0.0943715854842222,-0.014803354934220123,0.2397550680012188,0.062425203951106775,-0.04809372353389152
0.44140625,-0.13196098597132055,-0.19793325660848093,-0.11984578989878414,-0.004012213695078842,-0.08151700424799262,-0.23198944918867292,-0.05607884156712371,-0.21627964556004614
0.4453125,-0.1809103940694831,-0.22448051956095,-0.48086142115302954,-0.36695102069123986,-0.2774470433301701,-0.5014962702836363,-0.4343109155423553,-0.4438759988346449
0.44921875,-0.45040705119613794,-0.555508224894085,-0.30643004786765626,-0.30044572922524787,-0.5281772779734699,-0.30534405770717366,-0.375542215252602,-0.3601125264517167
0.453125,-0.6787073504909671,-0.4971726326696416,-0.6381126356933506,-0.4583963591018471,-0.5694434329765364,-0.5675784964784709,-0.6315202241598179,-0.5198827734866972
0.45703125,-0.8545457688092154,-0.7515599645968307,-0.6660145260821552,-0.8027586374486644,-0.6123465083795074,-0.5064705834136137,-0.7650422878022727,-0.6713772439714081
0.4609375,-0.9468992490018034,-0.8909565813979443,-0.9483828812977317,-0.7859532442011157,-0.8396162850071002,-0.8275188027708535,-0.7936419465813485,-0.9176633361687357
0.46484375,-1.072901225071979,-0.9193318132004951,-1.0684903564826282,-0.7645850850601335,-0.8990553338252678,-1.0552880906326216,-1.0892413485638424,-1.0366622307463476
0.46875,-1.132560027053559,-1.0420704325373498,-1.2127361432127834,-1.358251303903079,-1.0234885030706569,-1.246479487720182,-1.2504606519038464,-1.1297129340103493
0.47265625,-1.28245445393874,-1.4292486304319203,-1.373137584703678,-1.1117776912506918,-1.3371951070250025,-1.4026978709163906,-1.3025511818288686,-1.0665483514063383
0.4765625,-1.3556880496637125,-1.3620620889998714,-1.1579307614024625,-1.3368009945432062,-1.4602008147497882,-1.7079946022398325,-1.316831812434323,-1.572422384365456
0.48046875,-1.4124232837171282,-1.3627734679273702,-1.3856457145699026,-1.473009917253909,-1.322105535652429,-1.4603413018424758,-1.598871849881014,-1.7084629060657273
0.484375,-1.4314459073280787,-1.221335996758652,-1.3242098702391762,-1.4417823169490491,-1.299878536761447,-1.4245978648787527,-1.3352989941000388,-1.357874760072224
0.48828125,-1.0066308821332752,-1.3184552355275352,-1.2719742454443592,-1.1562581183786198,-1.058403579592511,-1.1899512336342533,-1.1187302683862905,-1.1233909167557934
0.4921875,-0.8223516674223169,-1.0836419075082067,-0.7066168794102654,-0.7271545053921885,-0.9447485457931097,-0.8987615149789384,-0.9278846368081736,-0.8514419914176649
0.49609375,-0.5089729748359204,-0.47644914658479115,-0.43328353212237114,-0.583955145987693,-0.5525232534565064,-0.5424544878341818,-0.3025534601388509,-0.39613476639936457
0.5,-0.09339095422099186,-0.050216020812392854,-0.023043286504687673,-0.05159108060049713,-0.09853403387218262,-0.0800271442933092,0.07044414815400186,0.11923246745864713
0.50390625,0.42452017914860724,0.39475638948104647,0.4680367676372145,0.4138093802508814,0.33444314240202005,0.5030544292333358,0.3719369345720678,0.19301264249118733
0.5078125,1.1258849708709877,0.878475725234867,0.8187766219879928,0.7958124875249858,0.8861564698086228,0.8033451582852793,1.0497991359707746,0.7668920812712303
0.51171875,1.0441637771537686,1.24570889332536,1.1820698178226592,1.199688821252313,1.111802559750037,0.9535420083003104,1.2955339159497812,0.9507995696964346
0.515625,1.3115120756200278,1.2360471256783712,1.4161226974846572,1.4501161760835262,1.3821105667200564,1.3653813239858417,1.4107880841883578,1.561747623227991
0.51953125,1.5329590061258946,1.5012115158382742,1.4350073277887299,1.527792688135835,1.292033484897253,1.5050025933609843,1.3953424563925119,1.509963476920002
0.5234375,1.3861761261806076,1.369232208403408,1.5411463065518962,1.4710446309932605,1.552876186983037,1.5185304820604435,1.2630659400026767,1.3911518377147267
0.52734375,1.3323882919324186,1.3427810898348211,1.3887196016613241,1.3847365043539848,1.544657199217135,1.338264760717272,1.243202493893328,1.416689113305611
0.53125,1.0722542535810542,1.3877624923346015,1.1929403262613076,1.1166688532198898,1.094702409290935,1.1930914391840386,0.9240891637239761,1.2006606509856594
0.53515625,0.9936642965146852,0.8447624409139542,0.8934736426813175,1.1006401998525281,1.0384832371170212,0.8380178563212828,0.7188337682937825,1.141001279987606
0.5390625,0.8457182713695437,1.0653860582990564,0.9519383838140567,0.8807214964717531,0.7325403207050729,0.7849416297423993,0.7912437558642951,0.8427986350560476
0.54296875,0.7970246790167539,0.6535930360088809,0.6168353096852525,0.7028260525427447,0.6515182616983783,0.6181526411849796,0.7473853734402256,0.7098699403960335
0.546875,0.6384476226035826,0.5569960307549967,0.7279519903606388,0.5027828177059895,0.6818595186961673,0.5038955005933917,0.3987861791255394,0.6020291861478816
0.55078125,0.3539193322857095,0.49818540063772127,0.32901242215380083,0.41008590264308664,0.6924365396956804,0.36266911952688796,0.4981886510289024,0.4049643753840621
0.5546875,0.41145937987830955,0.32510024942614835,0.2975833100367394,0.304639153216846,0.4566328691718039,0.29416600991673253,0.1830894332173805,0.3546412107568759
0.55859375,0.14989999972228502,0.08867683657136051,0.07873616813638286,0.10413238680911996,0.006116972866953646,-0.01679215241878798,-0.02487152730945677,0.17522695004763664
0.5625,-0.0757730138557373,0.030982169428885917,0.05396029534107431,-0.2029737783854999,0.014297799644586731,0.040827936244677704,-0.18797390655660562,0.0004524169103998499
0.56640625,-0.006184286572027686,-0.35887630212829114,-0.21262264183937157,-0.37768606964275087,-0.3124303786566593,-0.19630435305442268,-0.4088340459560972,-0.2941684113510897
0.5703125,-0.6291714798875044,-0.42700396572603966,-0.5839192228266398,-0.6345179945236642,-0.36396055130350646,-0.685945534317161,-0.53762528106739,-0.8543923522991813
0.57421875,-0.7841350684959192,-1.0353917137776945,-0.8704284103331963,-0.7844319963503583,-0.8662704196611593,-0.6930972719763104,-1.0477412477896413,-0.7835128632878892
0.578125,-1.1046728597716584,-0.930911980657337,-0.9983424847423235,-1.0524117964304718,-1.026760768308259,-0.7814983899212359,-1.0585249772033305,-1.2216755262992254
0.58203125,-1.2552221365540213,-1.234276356873424,-1.1928459575892387,-1.1388016881309542,-1.2002755403411407,-1.1865010069425466,-1.1613444763328475,-1.2382869398783976
0.5859375,-1.1296678244392833,-1.2895433697577978,-1.2289959987348982,-1.0887115359753399,-1.1310418518008347,-1.1723047255349006,-1.0660077841175628,-1.1022650365973792
0.58984375,-1.093692506617483,-0.9557003540279744,-0.9285925538031485,-0.9460214104660589,-0.9238691781477801,-0.942988973244369,-1.0999368284605164,-0.8859809070849776
0.59375,-0.8340326442733726,-0.8254762389760553,-0.7814087922928531,-0.8451606666522606,-0.860158935967646,-0.6559847733119899,-0.7757589580226564,-0.8712760428433262
0.59765625,-0.4875595842084521,-0.5281680194256466,-0.6245121779399221,-0.21438739476270946,-0.549900011357068,-0.4255005726214591,-0.32350048920386104,-0.47199796017754914
0.6015625,-0.14531347773858116,-0.19384523141941634,-0.1764794984757111,-0.1349091989812609,-0.1804860391419763,-0.2134082901564922,-0.236694070119143,-0.10391177001724822
0.60546875,0.31917505035682936,0.0751712795973741,0.06424855235542082,0.18696919126369851,0.18385854425346998,0.19482808546873895,0.1965584996499562,0.16452971934668323
0.609375,0.48179478753365473,0.350886303352809,0.4374633794355356,0.28781665574262516,0.41417820828993196,0.5188931117336248,0.49997711244616155,0.21621060243434548
0.61328125,0.567249416506001,0.6010611376127258,0.5302592344360122,0.5405906361998071,0.6301732438563655,0.6593849508478132,0.6677948029334688,0.5830905974953322
0.6171875,0.5223076087732089,0.545256436547117,0.7600778629406785,0.669835945002383,0.6745113378660694,0.7398244883658998,0.70213732539533,0.6887310034405733
0.62109375,0.479520613679607,0.6150786030418244,0.481370990981152,0.7554905301472865,0.6936544585805751,0.7338848436214616,0.6085653911149561,0.8165750481336498
0.625,0.5151600266926278,0.4958044687847707,0.5847638112822201,0.6304016906152335,0.5100497837735346,0.5645888169462568,0.4361813679975368,0.40192575935121694
0.62890625,0.4176983320231832,0.589424625118588,0.36414608490358863,0.29322698351281196,0.4680477418155836,0.36659464422622684,0.45486434121250596,0.1678510046077026
0.6328125,0.3100118090463678,0.11204604937566529,0.005956378742696583,0.21651785125391892,0.3113292012446065,0.10193465916051306,0.12764543290439703,0.16275494224057294
0.63671875,0.08034708128893996,-0.06975841500618984,-0.039247683922232726,0.013105520028946695,0.07276875763148226,-0.11848908610606035,-0.06970105410345981,0.045920172714400166
0.640625,-0.10788826059673373,-0.004797488618287271,-0.10860058954157067,-0.2678317327837033,-0.18584699553283673,-0.06743011293989076,-0.1207890580310058,-0.11824587745290845
0.64453125,-0.2323473375828706,-0.1280922667571857,-0.28247321462425456,-0.18502499067229325,-0.12715732021687617,-0.23076666258414008,-0.265608317355275,-0.12342235298370899
0.6484375,-0.31355696415321505,-0.2838791066012918,-0.2695507448379367,-0.33539218968709844,-0.22227285697429855,-0.44016023401702786,-0.37384012464694377,-0.048955260497718256
0.65234375,-0.23257881790058926,-0.48565213476031444,-0.4418021122047443,-0.19173493530732916,-0.2574717231870108,-0.19611887641128573,-0.23399638531502504,-0.452593009672146
0.65625,-0.34853415467589854,-0.41477601848525864,-0.22623780695541382,-0.38803917828241846,-0.5287782527856031,-0.3711473639345796,-0.23555365590699745,-0.5581878368587082
0.66015625,-0.38515356495620195,-0.5176193823236317,-0.20610311814280746,-0.3431381218694081,-0.3995381839375948,-0.29024655036298885,-0.4305825080510684,-0.434741270774589
0.6640625,-0.5136295738403441,-0.6651282686329905,-0.4240356117625584,-0.4518330927704383,-0.5415248921532364,-0.5311127912296228,-0.5031010314789752,-0.7191816738631504
0.66796875,-0.7386214091396213,-0.5797982315245845,-0.5078507094115983,-0.462688080960617,-0.5941012009050937,-0.6297572163405921,-0.7502682445246155,-0.6520463844299608
0.671875,-0.7763270177362903,-0.9353142816983521,-0.8901540319576757,-0.6836726711287214,-0.7760710564386722,-0.8623746302876358,-0.6593541388375469,-0.7459420115605305
0.67578125,-1.0166334805984991,-0.8002159009109554,-0.7757227503771262,-0.7740215420191406,-0.872939694659592,-0.8794838756904153,-0.8417968447052978,-0.7955403207692319
0.6796875,-0.8828275312675015,-0.789517301171994,-0.8156764777245205,-1.2055514936803853,-0.8556346219854103,-0.9447882742137379,-0.9033372937307107,-0.7656807795712236
0.68359375,-0.6421003816204247,-0.9903277208543966,-0.8579769878997658,-0.7006588021040179,-0.8274475533764831,-0.7560788450323169,-0.8528979993620924,-0.9784276371996816
0.6875,-0.731667541426436,-0.6570611995729082,-0.6738948875724724,-0.7425481587004028,-0.7394751736563079,-0.5425204628884408,-0.7785664719893143,-0.7113330080875216
0.69140625,-0.3681179465816152,-0.42111596493766934,-0.5418690334171269,-0.36935290732815557,-0.4000557747392577,-0.513223634342371,-0.3571526615986566,-0.37877688200696735
0.6953125,-0.11000897563873957,0.047348848311220076,-0.031415210722333754,-0.011579928968417051,0.16627354593143565,0.1680586473037389,0.10894214063691401,-0.029628214861272345
0.69921875,0.453054506859236,0.25672665061735434,0.4358508876881567,0.22045442378014438,0.5492708885839284,0.4257844607783162,0.3284486944835933,0.38607154683445283
0.703125,0.6149082973452703,0.8240660077289774,0.7269207038895593,0.5394341858292516,0.90415212108397,0.905016753602812,0.8572730779570535,0.6542365486892042
0.70703125,1.1151873634442526,1.337066364269816,1.2764814603287957,1.1569856572968906,1.3138284830135754,1.2408588217630345,1.0402676661951566,1.0356473090935792
0.7109375,1.6369536655184203,1.3944039881588288,1.50267351968354,1.226968632115255,1.4493156684060384,1.5231450477602557,1.5422094691368833,1.5510630733788753
0.71484375,1.5953896781113093,1.5426921869642074,1.6426790378187242,1.4545590665925714,1.5061916080829265,1.6270394774518786,1.4902950345355037,1.5879103594796944
0.71875,1.7322808077512266,1.5949707394078894,1.6007703625370175,1.5330935150251004,1.4504358788869285,1.5212823696627964,1.6359121075668561,1.6549139717741337
0.72265625,1.5754377628644018,1.5678225452839545,1.4117531827222702,1.4017692972997975,1.4509057569245367,1.533788538509694,1.5779965426403901,1.700661666728154
0.7265625,1.2598035383860051,1.429439184198621,1.369361567935559,1.4863240568557827,1.434803540291219,1.296339426956038,1.3295243878941265,1.4467869285112462
0.73046875,0.9798267775542802,1.34597474374565,1.07761777052935,1.0910923058792805,1.0646586678332348,1.0461117275680867,1.1063596108651237,1.1646832261644484
0.734375,0.8986351194729917,0.8162751198921672,0.9563868952050041,0.9874606839922163,0.9210056323468879,0.9069242701440338,0.7967046513009011,0.7999778353464014
0.73828125,0.5907209783076063,0.6178255896446869,0.7045633972341716,0.4957336544490247,0.6792194492688854,0.4071442678613777,0.6938043157260237,0.6013700351601967
0.7421875,0.48460359621862986,0.21966110966439795,0.40797556155744547,0.30193470693248026,0.22458976678218445,0.26010324048369404,0.4103621165366195,0.40536740074525857
0.74609375,0.012528468658059122,0.32200919854422927,0.22530899540002505,0.13981994331248873,-0.14938051065671054,0.12176116041028906,0.296699107803995,0.12227694724618776
0.75,0.028955753558039907,-0.07214143534543573,0.015914738955152257,-0.04453872781386846,-0.15204391516732546,4.038025040720644e-05,0.011520312944394737,0.09088801329351368
0.75390625,-0.13079318906679077,-0.1547053325363301,-0.17027575577591852,-0.24064457144123946,-0.2625020498063099,-0.37783537280760104,-0.03656405302676666,-0.1929374482209653
0.7578125,-0.2111577337631032,-0.45970535040145966,-0.20682845549415618,-0.41887303873631815,-0.4228685961735519,-0.3398215220233943,-0.3099887636664821,-0.22024428782765637
0.76171875,-0.541519727721136,-0.5917100853093168,-0.6351140140748521,-0.6818456545851427,-0.6863427927732872,-0.7706834027417206,-0.7884694682257838,-0.6789231540806964
0.765625,-0.931956939663902,-0.8646824714720628,-0.8618073030431668,-0.7452543750062628,-0.9413199106571681,-0.8490572817964623,-0.8177834372710368,-0.8192530066628008
0.76953125,-0.9931826907352332,-1.1963623116878623,-1.158300556521781,-0.9214754984491719,-1.1948502617945782,-0.9890412729441785,-1.0958457366831484,-1.0760524628965216
0.7734375,-1.1746771650238708,-1.3653797233630462,-1.1849346214117937,-1.336785447840943,-1.3142833701553984,-1.2307975029683014,-1.266761625599052,-1.3998927336707998
0.77734375,-1.4405676917854675,-1.4122744225532462,-1.500652016488495,-1.52319756006912,-1.609339147168317,-1.4679455189306663,-1.3297030233135074,-1.5836952643804363
0.78125,-1.6941720586317395,-1.716643354194094,-1.6758082059497126,-1.5296469152761307,-1.4386615015828441,-1.569029696464952,-1.6223524612566644,-1.5409092656791308
0.78515625,-1.5399036282108878,-1.6840923488535124,-1.494360272208925,-1.5463657519279892,-1.3733404166778698,-1.497385063290323,-1.596102959269157,-1.4800436520387854
0.7890625,-1.5412230149134252,-1.5928441540924667,-1.4430511253758431,-1.2417551338871342,-1.416167490139473,-1.3680050080165898,-1.3560736431149605,-1.5126847215621166
0.79296875,-1.1213346519485237,-1.0988852653333447,-1.2319278065061419,-0.9562027650373961,-1.1138623405879864,-1.364144236378052,-1.0072276867448866,-1.059205798320919
0.796875,-0.7207670426969613,-0.8343083317319894,-0.6773016354313368,-0.7925340486872177,-0.6417073983719579,-0.9116896273144307,-0.7188653091144819,-0.8092310365164432
0.80078125,-0.5350721490508283,-0.3833860235917898,-0.34726770199421864,-0.39089190709153065,-0.30800484082283375,-0.3840649044722149,-0.3563278220995908,-0.27707038708695725
0.8046875,0.06524500171789308,-0.10065039018984367,0.1054101790600464,-0.013414673690127846,0.018849665011097007,0.0463128744201471,-0.042873998434427185,-0.032703309025907595
0.80859375,0.2323145876543088,0.33325873355210706,0.19189688813480887,0.39261658293871077,0.2779953629008221,0.19135798471540832,0.4470161441524045,0.5681619955752462
0.8125,0.6549683696615902,0.7241937880360192,0.7208039068449552,0.6880608781253363,0.6167473842943898,0.5714129921792239,0.5833093410591944,0.695843338261286
0.81640625,0.7247822903498832,0.8904465547198017,0.7650072003659456,0.8562275041856915,0.9931162368935377,0.959786678577995,0.7747301226152625,0.9736643106239231
0.8203125,0.9050129900687163,0.8153723735401719,0.9648860747071331,0.8681539420454177,0.8586137925527418,0.9157073113133047,0.9016322927683619,0.9866894874403843
0.82421875,1.0493080049683063,0.8476746881361785,0.8218506538262428,0.867733057135209,0.8790607317491238,0.6509455520915752,0.930497571944185,1.021133779735569
0.828125,0.799136844062846,0.7658044016656848,0.6869561478770617,0.7784631890938016,0.7060208249468557,0.5242174539479791,0.8705511523917446,0.7378243936961851
0.83203125,0.8612639336671031,0.6793228088536913,0.7035806714304536,0.6261844362441129,0.6513866335438657,0.7416163743340386,0.6964352701299832,0.55179277734557
0.8359375,0.41017825157372756,0.49281451507592944,0.6148419418956386,0.6469847158493203,0.663378395840445,0.16610526279724064,0.33230262869321203,0.7082630356294113
0.83984375,0.44252943431704755,0.2136451466757497,0.41399364846981423,0.3480427161541787,0.31287577852730164,0.47347924959891247,0.48802726692538717,0.3491726703560094
0.84375,0.2727664954304077,0.40497849850704587,0.3195488855474511,0.254048711756344,0.28285810373348,0.36909353420335345,0.2879788977647858,0.28944333943631184
0.84765625,0.17502379054360728,0.3954219780914807,0.26357014455147204,0.3971540660482179,0.45844910841262787,0.42420784047507726,0.4553882834693692,0.3016042517171792
0.8515625,0.19615603675114973,0.41179254177948055,0.17110563498956105,0.31883037601019776,0.2953626167881424,0.2050767366388911,0.2808397275110242,0.25314395455455
0.85546875,0.08966635254398406,0.18818845641281073,0.28969475220511376,0.1633381788431178,0.12248168722989508,0.09931314591304272,0.34265682556814636,0.2988576430215413
0.859375,0.0667968214300307,0.24978250015207565,0.2813656460750691,0.12465738099821336,0.09097338421072626,0.2615063479395802,0.16875485080257885,0.204133984447301
0.86328125,-0.03228975233040619,-0.054838223876813294,-0.08096055166155192,0.04998312819593623,-0.1464434017428307,-0.02035701494911862,0.2604670482522015,0.029967304103981518
0.8671875,-0.41514585817073024,-0.18717327289268243,-0.1673379841927096,-0.3650186325742953,-0.07157952666748593,-0.18007531085449124,-0.004022196550819229,-0.15908199911795157
0.87109375,-0.2259375178694456,-0.4128228877145279,-0.3112356035672339,-0.1690152927715894,-0.2463309918531917,-0.26996282280048783,-0.262659425774993,-0.3350921944224059
0.875,-0.5337663139616411,-0.3671863216441046,-0.39691682287984054,-0.37378967608686453,-0.622481917755195,-0.4595031742680265,-0.6719035325380117,-0.6206678744657889
0.87890625,-0.7670241487190149,-0.5733439675935336,-0.5454053527950977,-0.702098246465525,-0.6758488622551733,-0.6546443387828422,-0.6705663913258664,-0.6315597204933747
0.8828125,-0.6166070531807216,-0.6890828141092177,-0.741492506333449,-0.5330138754144844,-0.7105615574270432,-0.7725547583355992,-0.6247386561941788,-0.5970751464384628
0.88671875,-0.6614921524813526,-0.6676551393074279,-0.5855266150164466,-0.5194165166723969,-0.6931536560648445,-0.6084555813735539,-0.5521221213154466,-0.7490835396029123
0.890625,-0.445444131061009,-0.1576822242810868,-0.37689978941236885,-0.29899385752545254,-0.36439496824713935,-0.3735055318142691,-0.4273491994299647,-0.43837498272104325
0.89453125,-0.22696716366160255,-0.1416458405810562,-0.3654508881066426,-0.08066636232303999,-0.2920377461462499,-0.16368582233465587,-0.1695578702418781,-0.13563899723435927
0.8984375,0.20516285279541574,0.27723134338106425,0.038991786123102,0.2800179335704496,0.3548001952276581,0.09723909218190321,0.05285035081491335,0.1665114596365777
0.90234375,0.5624972699396128,0.47818757286917646,0.4345376705049977,0.5250429139730594,0.47300607390008237,0.6653054737358953,0.3903436362390381,0.4791258378547761
0.90625,0.7848004067249595,0.6923519076746179,0.8219742351704576,0.8483962442664492,0.8836827774453231,0.8993676807911645,0.7281634626818786,0.7500619414854512
0.91015625,1.030503896075987,0.9062488823730432,1.040049214864544,0.8819879529548372,1.1922398092323785,1.0876335427383532,0.9135081271789997,1.0374559037444864
0.9140625,1.15293798103405,1.1967740558999431,0.955458638112722,1.1527434939485042,1.1185355828966865,1.0265591912955907,1.2253177212928643,1.1209225949775803
0.91796875,1.151231268033383,1.1709227929191042,0.9598793484135703,1.1024313720972239,1.284807856175144,1.236989919083404,1.203569834715198,1.0590515472089985
0.921875,1.1000897606428581,0.9077416726812997,1.141973865280795,1.233182695350685,0.9998967623996369,1.0755658798637842,1.0077903258326675,0.9460214957107502
0.92578125,0.8259236951702179,0.7703848761688525,0.7390928111320205,0.7379646834624365,0.7591704564564559,0.6377288634936401,0.7708003001626018,0.9839535232544591
0.9296875,0.5763781131929898,0.7104874637047471,0.5858728469405079,0.4947172626823943,0.5863285454816213,0.6570414800463233,0.41271642938552716,0.4132447360848845
0.93359375,0.32239021851165867,0.47660746053093866,0.3197706027396657,0.17784389863283367,0.3567317552360381,0.21840855539558657,0.27922075093888893,0.12187676861022059
0.9375,0.2308420115229897,0.0600236017656746,-0.02754833571533251,-0.08612754867278952,-0.03594557175775151,0.049747259562731454,-0.1092205745717428,0.07160306337339005
0.94140625,-0.1329355936311898,-0.20595017110636277,-0.23063223377875178,-0.18810932291525298,-0.2537622187777885,-0.26529260148380746,-0.11833835433024589,-0.2597079824924877
0.9453125,-0.3836579476968045,-0.329875524257839,-0.34756348537221743,-0.35892886389856754,-0.30205570026686557,-0.3049692282821387,-0.4391938870219738,-0.32223806759767015
0.94921875,-0.5585198144624712,-0.5275301604920496,-0.3607910566488249,-0.4327882161972369,-0.5055717510097397,-0.4072813751238488,-0.4261556872972348,-0.4298439603621438
0.953125,-0.5588543238495797,-0.5182467661905171,-0.7393110874618561,-0.5053241659228151,-0.43771825570333744,-0.6428221249801439,-0.519563588711272,-0.5823655211279449
0.95703125,-0.669338892121215,-0.7311682372612589,-0.5738005556964576,-0.6833641629027127,-0.8013884312194782,-0.7686355770234996,-0.7215174263727575,-0.8134924872920408
0.9609375,-0.9093725819054408,-0.8466233918215726,-0.7079334664569501,-0.7631519448611235,-1.0965635758367185,-0.7158106388433233,-0.8558844464727817,-0.7569369495106213
0.96484375,-0.942713222438461,-0.9100365259660865,-1.0377146769077972,-0.8699760682916611,-1.055944483857125,-0.9288661791720008,-0.8513304796552844,-1.0800578788693298
0.96875,-1.1302889018374038,-1.1214295405794297,-0.9393110057970007,-1.1406864283214526,-1.2294230941698088,-0.9940398063704468,-1.2476004140740833,-1.255992233614686
0.97265625,-1.2772432808339755,-1.2677044901899697,-1.421662036889603,-1.2499990841817508,-1.4594206398063894,-1.3428955296288743,-1.33031483921615,-1.3084908908920498
0.9765625,-1.4209350087581463,-1.5223499226474162,-1.5668776285328565,-1.607819595702328,-1.437545503329423,-1.2816442161834924,-1.5914255570568319,-1.3806289931014395
0.98046875,-1.4399322697644492,-1.4897865759505478,-1.3916695754499133,-1.6605917447444578,-1.3745482525485828,-1.5399707983562636,-1.4446094065748525,-1.4904716808688296
0.984375,-1.2448466462176069,-1.3782845156244872,-1.445773209769521,-1.3608232392661008,-1.3417787176083875,-1.3060435334519056,-1.2907140509344797,-1.3534006400622394
0.98828125,-1.0830338830198398,-1.2019059153769063,-0.9782125795958729,-1.1252348204989722,-1.2198081023243188,-1.2933714158042806,-1.1459208892519237,-1.0673344677090624
0.9921875,-0.739460952095275,-0.9478937047125509,-0.8556976534127143,-0.8836584405841122,-0.7974261100910225,-0.875345285379972,-0.8399630371859896,-1.0780759912292206
0.99609375,-0.6611228809014158,-0.43390037427827616,-0.45071934021707766,-0.6952549158240637,-0.4718582103587413,-0.4446042237414318,-0.49363550261556816,-0.6242529935941328
1.0,0.022195508704164257,-0.01763378693016548,0.11872846258641846,-0.297820980265788,-0.04547794304402413,-0.10588364573507424,0.08036809121366402,-0.20837909173509545
1.00390625,0.28739230075626443,0.47112519077087145,0.5118521952558026,0.5884979793133264,0.4257807438905136,0.5630113482358106,0.3795754716899517,0.6744629036477249
1.0078125,0.7143805956061481,0.9228877395396136,0.9629851683616677,0.9299029290052571,0.8960202981330376,0.9763381581976982,0.7879613080209336,0.6227575292634271
1.01171875,1.1764110777046823,1.1418635593885869,1.1391542171333588,1.055104840520695,1.1985763326217718,1.2475091897520505,1.0699273218162466,1.0019209323990361
1.015625,1.3087978707039751,1.324868521416687,1.3694081375144525,1.3473700272650015,1.58894621236406,1.2749527501495845,1.2785887125664317,1.2808355847720065
1.01953125,1.5414785380477942,1.6210629727909986,1.4526509431589725,1.6280011219846566,1.5317567886181571,1.5941794541747243,1.6194250981851486,1.346966537396531
1.0234375,1.2735509548063004,1.4680327356577434,1.4494674173166973,1.404733471436488,1.4998010789546017,1.5782975207471601,1.4905230969843148,1.4150418288478928
1.02734375,1.2185203022655793,1.1352263811386312,1.3790525314140338,1.2710406334873332,1.5142087143818916,1.142497089240321,1.183850834586757,1.1892268081620483
1.03125,1.1097804292104059,1.3267916798169064,1.1638224753317752,1.0660609543778774,1.1081280837205258,1.258984417105899,1.0371076389670884,1.173726203196983
1.03515625,1.0537145814766509,1.0987185735519769,0.9909344551623251,1.059874929105288,1.0076902060198814,1.0007453070194854,0.842786766896398,0.9511268237713643
1.0390625,0.8155329983977041,0.8771023519771171,0.9162139450325982,0.8872083092650255,0.9608134660224393,0.8739608665103323,1.0927923284748737,0.9459702428820789
1.04296875,0.5916760611435766,0.7975790161834059,0.629719767390263,0.7456748834320299,0.6402175267222557,0.6497358703225681,0.6705258246582939,0.5759851135669782
1.046875,0.6347305126519958,0.5681251140288642,0.5879176443479041,0.38293093516713317,0.534451303068761,0.5956375068118379,0.7843455775700091,0.5393836627398032
1.05078125,0.6011146837215529,0.24083970434792892,0.33565907438266424,0.6282063863253244,0.4488117587833293,0.5415861569477584,0.4201474005236094,0.4333784090618296
1.0546875,0.5234602729849757,0.29848619954562405,0.32355750063880245,0.19806960774125143,0.2645110598920862,0.15566747197546205,0.3191002378027701,0.38373846069153505
1.05859375,0.10880637879536104,0.09706847330770661,0.05861493062058899,0.14680680373459884,0.16847171366732608,0.12354404956691109,0.05284761048713535,0.2961253023987945
1.0625,0.03639820617822165,0.06763561577453585,-0.06774070012231606,0.06024017016317679,0.00891011570972288,0.17654578954814934,-0.06141063595544829,0.046409525979568156
1.06640625,-0.3135271235633237,-0.3203784991304754,-0.1605344129780781,-0.29210706446563073,-0.37750040768439774,-0.24909421198146547,-0.3232712813431527,-0.44969752872515045
1.0703125,-0.5292815584877244,-0.5529744127350205,-0.6730579554835641,-0.5497453001028727,-0.45422070445296386,-0.6769517371450717,-0.5787159839573002,-0.6601252843669484
1.07421875,-0.880151335783417,-0.8190374969851204,-0.832659208853949,-0.7138946105839183,-0.8308838734790599,-0.7464805278677757,-0.7516295387063783,-0.8597186653914978
1.078125,-1.036417126168236,-1.0354776455098553,-0.9885424394328746,-1.0130462581328616,-1.0617834454177646,-0.9354394920561745,-1.1111989784705782,-0.9043316352808501
1.08203125,-0.9693465198967527,-1.171557001189183,-1.0851048038319966,-1.0787158360145281,-1.0999668372872005,-1.164425693171142,-1.2201277835161564,-0.9958935685474856
1.0859375,-1.2878346069196775,-1.1337746608372883,-1.062788096469395,-1.1040287828987214,-1.135566517730516,-1.0831839161616021,-0.9079134532888411,-1.191762825444667
1.08984375,-0.8414774871099093,-0.9997839507965174,-1.1572031563697682,-1.1521263197502183,-0.9951031640285208,-1.2716549097164824,-0.7258957591580717,-0.9582282767764413
1.09375,-0.706624452341555,-0.7160546876444496,-0.6711256499170953,-0.8041150768236538,-0.8123761268408914,-0.6666134922121734,-0.7905601016786346,-0.7929420659709719
1.09765625,-0.3669431796147839,-0.5071488445034953,-0.4304407342911447,-0.6626479249731374,-0.4061645492162604,-0.4809773201661864,-0.5713881999600295,-0.5413784546535954
1.1015625,-0.299740399938179,-0.2787959131744785,-0.38776175442774163,-0.3604071705254838,-0.13409516074635022,-0.22187650393685482,-0.031003565840351882,-0.22667378362380303
1.10546875,0.18020972981907862,-0.023099440023546497,0.3215600598420024,0.018411918422834295,0.14022153563720993,0.06597346573178917,0.07983538103599482,0.0898135105769344
1.109375,0.40545727494692096,0.5476938468163547,0.3723393263949875,0.35776426242752835,0.379093223896919,0.28876901125374005,0.4657982481774382,0.46678164436219205
1.11328125,0.3978941322650248,0.7810380151866867,0.510024585751838,0.7480273063150371,0.389312281364942,0.5706098933985314,0.6971641560406693,0.5785550532981618
1.1171875,0.6174512013983695,0.6543764873226853,0.6627673172786924,0.64289030309227,0.7003222993033545,0.7715201708036192,0.7072186009093862,0.798682920532219
1.12109375,0.5537817456831046,0.6777418003879193,0.6503139561965147,0.7321953776992535,0.5023054787661307,0.7619683000184478,0.6777374866575719,0.49949232064886034
1.125,0.4466731898788848,0.5459268950924056,0.6112693752345795,0.5465749170356201,0.4626743919954019,0.5612939082075699,0.4504404222161271,0.6252870831976663
1.12890625,0.31028051038948223,0.35454337643413797,0.40035374030313164,0.48675826549986284,0.31310967776207,0.2958151930744063,0.31278209764598486,0.3876999455558101
1.1328125,0.18994250245126926,-0.16711136829287893,0.1507835423308291,0.0353024342481021,0.15165316604334417,0.1281953157274759,0.27380104195148514,0.3336517909201259
1.13671875,0.09288393804654092,-0.1327915412436242,0.044736139389491614,-0.11010051867876164,-0.013137054204402202,0.007636418668034401,-0.004830262825506873,0.15969426751176807
1.140625,-0.24218651753528198,-0.19483041160824216,-0.007414304390484322,-0.004519757147182918,-0.14012617987119322,0.00012164045026982762,-0.10035430388125241,-0.14790489115757435
1.14453125,-0.25808824735113595,-0.21563460182365166,-0.27187480857443763,-0.2756316378176916,-0.044837839833242465,-0.24855010302076275,-0.23163196293783417,-0.06486792916003362
1.1484375,-0.38810027634896727,-0.15607881371352028,-0.18716421469915645,-0.24050984082314347,-0.21407412118534577,-0.2732943954108055,-0.3408199607484642,-0.3168931341794386
1.15234375,-0.31855894038350185,-0.39006130205407624,-0.29154210451845686,-0.3866507695784174,-0.18595372269109062,-0.20895793963417186,-0.37321389055623444,-0.2993648958001338
1.15625,-0.36035246747969507,-0.45741750427267935,-0.4851780206094145,-0.4101691442682633,-0.39688167892700643,-0.47198625970188846,-0.387413092169694,-0.38944879489166906
1.16015625,-0.5495815274615994,-0.4603504936295919,-0.4353642426138587,-0.4813327531605296,-0.23212687696260317,-0.4692726901484827,-0.4742626961362934,-0.5837495218590392
1.1640625,-0.5598340925730834,-0.4223710660845402,-0.3893188489402916,-0.49476464205351456,-0.41633135769644447,-0.5420142624991259,-0.41341118684505,-0.42675798565019085
1.16796875,-0.7297858225336393,-0.491558491296054,-0.7440013020826,-0.5684154253734036,-0.6448021614587991,-0.7345750982340099,-0.4978608710379958,-0.6822387320841503
1.171875,-0.7481998807902647,-0.7005729682370829,-0.8153696283664977,-0.7867069054044906,-0.5583114730903446,-0.8686977923353509,-0.7446273346162754,-0.6797035964794494
1.17578125,-0.8306779024042938,-0.9299351541970545,-0.9260380809483584,-0.7926696824082562,-0.6994564437729153,-1.0517436941146725,-0.9460055112837303,-0.7873997117097719
1.1796875,-1.0464464661696402,-0.8999128578636096,-0.8163822556456809,-0.8929064181971031,-0.8495958690835121,-0.870909872785302,-0.8515957629648722,-0.8052912348381833
1.18359375,-0.8517495389173178,-0.8969932165278023,-0.6898059092026356,-0.9097384840785775,-0.5596463684471467,-0.8253058723213142,-0.7203136871614615,-0.6985030707566133
1.1875,-0.7009898909492573,-0.617628338718705,-0.7986516126757998,-0.679292537737421,-0.535835767244769,-0.3497178459892128,-0.6703045353209841,-0.6350850898122844
1.19140625,-0.34401678961695065,-0.3206250082827521,-0.47086357686398833,-0.28670257036717967,-0.29095514140773426,-0.4865761718687891,-0.1414605651627726,-0.5290394489219711
1.1953125,-0.07430555342228859,-0.13566922550393987,-0.08805265838467255,-0.1662971371661221,-0.028038479135408058,0.022289921840039285,0.031329846682841826,-0.050461431591684695
1.19921875,0.2666695098801646,0.23067695509402825,0.5382941045449526,0.3432261168460169,0.37325380891432325,0.4086065515437832,0.28899694513847507,0.5048750039418656
1.203125,0.8750165024242198,0.6929014551901894,0.8017213953168646,0.6898197898227569,0.7466017651790455,0.9575366307505515,0.9770930865787705,0.8177200840905878
1.20703125,1.121386322649475,1.3514646922384463,1.1895696903956046,1.1804476100639187,1.17806674539857,1.3493571694529773,1.1605403569995547,1.1906117857330072
1.2109375,1.3113580170469608,1.316293460424667,1.4436973479030801,1.35959208216143,1.5032346905958507,1.517332378989223,1.3402577829024322,1.457133858032952
1.21484375,1.603377801932084,1.6378528555954257,1.3665311103539146,1.592737072462906,1.487322123015282,1.5304002999288633,1.5343615998975253,1.750580462962843
1.21875,1.6454657943455322,1.6716583414264348,1.608986012587644,1.6319507887579294,1.606975379020434,1.6964884396301407,1.6813561901494167,1.7193856208533014
1.22265625,1.5547051475694809,1.4536958216631815,1.4335252918258048,1.64651663207,1.5277692244193284,1.7018927683185432,1.4434486523241035,1.5048476826761752
1.2265625,1.2077620329779686,1.3774903410032682,1.3625135806449877,1.1697553270445673,1.3672575720273916,1.1886916358894344,1.2064127937175926,1.3165408208235057
1.23046875,1.1508324677512254,1.0417456773438785,1.0378001112084156,1.2057132950378653,1.0758761155759964,0.8816221285192126,1.164744153224302,0.9353693070875866
1.234375,0.7129741143246835,0.7752130141085535,0.8652923182284472,0.8820122528804477,0.7451957902304992,0.9238115576418804,0.8026269330926946,0.7776166045574564
1.23828125,0.5204933529152703,0.6169901837736849,0.5883918017855676,0.6371523407890566,0.6745613336650633,0.4673796773950944,0.4625145197880962,0.5130411076742573
1.2421875,0.257340667783617,0.2956268958625463,0.42895521434130013,0.283734154198041,0.34179601146342486,0.2952833667746117,0.37672438205867675,0.3150469031914601
1.24609375,0.2640991197377955,0.4449130357814043,0.19143840222607417,0.22936022877407877,0.1625507871474007,0.15092531364632789,0.20515333006747313,0.3003964983767119
1.25,-0.13321951688159575,-0.10553561786298886,-0.09248062570300525,-0.1742606214955895,-0.0521851948818354,0.029416737338980273,0.03232741568815754,-0.03717440319102971
1.25390625,-0.12724690793222707,0.002970109728391873,-0.09271492973250224,-0.1225273014337522,-0.056954107920770325,-0.26875646963889877,-0.3423671341101614,-0.3929312134846423
1.2578125,-0.3693477820251789,-0.3908231030422352,-0.49474173732285154,-0.3710416160713505,-0.43104135652876524,-0.3400554162770134,-0.2792767936433573,-0.35076173065141775
1.26171875,-0.7325645164790667,-0.597896595051252,-0.4776173272650624,-0.5286069344716812,-0.6238530770528447,-0.5659844997207737,-0.8221211745624211,-0.7686052026239227
1.265625,-0.9061254408503432,-0.7846242512944649,-0.8659855492927788,-0.8293028447876032,-0.7918619780891061,-0.7791420637177381,-0.7222134262315456,-0.8446876632280551
1.26953125,-0.9994396987497867,-1.1746671986208135,-1.0042338493988547,-1.2486834114459644,-1.032157644536566,-1.0802421074422381,-1.1636458574905815,-1.0757850864053151
1.2734375,-1.1067793527404572,-1.3485028173157274,-1.3143202637235107,-1.3496045236066252,-1.3565796662864162,-1.189843127632536,-1.333377734218263,-1.3156506042061118
1.27734375,-1.6142128148938102,-1.4936216906057533,-1.5931719658925998,-1.4759811220210515,-1.3949760400103508,-1.5983505195210106,-1.3965653801672586,-1.451255604154475
1.28125,-1.623533146099731,-1.3527699548289502,-1.6478876369572841,-1.5558241929542522,-1.5036811408206348,-1.460207483141542,-1.729432863144602,-1.6182402202182904
1.28515625,-1.5462956786356097,-1.7383509143350981,-1.6680252993536935,-1.4978095344324114,-1.6361446654740264,-1.5269543189117059,-1.3395452385297917,-1.5654444306163862
1.2890625,-1.3075105155950262,-1.5487143113557074,-1.549678793864213,-1.3770720981962419,-1.2766270773453536,-1.4986420103529627,-1.4443296455019714,-1.4874657499211843
1.29296875,-1.1918297237830215,-1.1313577639701944,-1.240657634813564,-0.9668345939912452,-1.08554458563602,-1.0921926380059028,-1.0468433043980903,-1.4110680199982657
1.296875,-0.8071130309169354,-0.6676852025900578,-0.8064708878346688,-0.8231339962803861,-0.8721510543354867,-0.617130182778871,-0.8447239141543488,-0.6897620452946374
1.30078125,-0.3453732310847831,-0.3075282702935903,-0.3379767545413995,-0.369190335849445,-0.48082816586281363,-0.2136504640064687,-0.09407754555207454,-0.2092491570876672
1.3046875,0.18194305352168483,0.12782660970521217,0.11539991824564962,-0.30095439670048335,-0.11341483987535608,-0.04516739893267357,0.17467246097174768,0.025734251719238575
1.30859375,0.45065983440116725,0.29917602154449385,0.22520391660463826,0.40445892266552813,0.37560039193561273,0.40874104825981067,0.4376030011843806,0.26493799465831774
1.3125,0.5118358430564989,0.7077898617847223,0.5822436511501508,0.6835546685710643,0.5906442597076119,0.5283107247439528,0.5093460576059959,0.8052195549878493
1.31640625,0.8110656535536277,0.774994185562399,0.9300908680663984,0.8275716371896764,0.7392761263589847,0.8678341199731456,0.9551940627088907,0.8801048977749482
1.3203125,0.7458620186344002,0.8420074078454515,0.9867648936516866,0.9612860791924013,0.968882459024597,0.8605176386592042,0.7180099385472731,0.7662847997574322
1.32421875,0.8013530257322815,0.8835983151976448,0.952987758347208,0.885821022093188,0.7508230993104607,0.7077756024118331,0.8653308426769701,0.7646392728987446
1.328125,0.8088965040361585,0.8408681198350928,0.6689087782231147,0.7679697447502958,0.7688969153417187,0.6545803071950516,0.8167559269169676,0.8150660346345809
1.33203125,0.6766080553525973,0.929485498209901,0.6774734310206896,0.7564209350707243,0.6359547197781643,0.6336332603225856,0.7910994809271946,0.6882152003065156
1.3359375,0.6204115465176998,0.5971170356538541,0.5031117570416336,0.4101185352801227,0.34625572167248364,0.36953144401737237,0.6145321809152715,0.4730092151264506
1.33984375,0.44775106602502557,0.29413767743051544,0.4901062491247393,0.39061367742666236,0.5337695234167966,0.36675811964785743,0.38123687837491255,0.5266594694279311
1.34375,0.3761111587838686,0.23786534230298956,0.2879604552694064,0.36985273449255807,0.313167688026529,0.3253233784526162,0.17438725830878538,0.3791655538539634
1.34765625,0.5118137274350153,0.4309566167952574,0.25614992362463845,0.4116925311240281,0.09844520910198984,0.18661308949594152,0.4093257049419782,0.40901364299749066
1.3515625,0.2619116187677811,0.2995805482889274,0.3888326617974127,0.3462689178075704,0.2896297728564564,0.15001260552467288,0.5128887178177116,0.21123057530274153
1.35546875,0.314361926832459,0.14598155746453068,0.20954943518212427,0.28271908219473857,0.25071402097552054,0.1509666801123739,0.31080838266512856,0.25129270082094923
1.359375,0.19373297185340765,0.31077105806262767,0.25502774103567905,0.15601080940310486,0.12103978884547766,0.0766004983780794,0.1684774111588707,0.23681497380315775
1.36328125,0.011406131058506144,0.04128143070685866,0.046402790057573376,0.06822903898787239,-0.026081450835114144,0.09710380167456467,-0.035601474817039874,0.0334551995704228
1.3671875,-0.2192916067580375,-0.045891718963184225,-0.03542120852277944,-0.1563108558016743,-0.12119306099846489,-0.07776758714221985,-0.13971051370396564,-0.06863833329578552
1.37109375,-0.3171420121893125,-0.10581626694412993,-0.3180001185556185,-0.20697662724184676,-0.3087850157855699,-0.24655654379720898,-0.351655244754389,-0.25036240971837437
1.375,-0.5471895290421697,-0.3415731192776992,-0.5769744595955844,-0.21220068555785748,-0.581756449087581,-0.5328306003446247,-0.531992374164696,-0.38919358335238546
1.37890625,-0.6236912021253128,-0.5753796289815507,-0.6091229393131344,-0.6016441365851911,-0.6503409112098008,-0.7358206772638218,-0.7351818378333043,-0.5310936769822688
1.3828125,-0.7572628872054327,-0.5211855433014494,-0.5258698298626675,-0.6014941504626802,-0.78694908855431,-0.7705777164992945,-0.5799715876035103,-0.7249023244685926
1.38671875,-0.7453028913838351,-0.5575097674289774,-0.5753053814643377,-0.5878249990447887,-0.5917203721938612,-0.6221281989022569,-0.6626918306674856,-0.49984477144383277
1.390625,-0.23000993081601706,-0.42843759575781476,-0.4695905692692051,-0.39441861820969226,-0.4778612788708393,-0.5888890840766006,-0.3376719644493793,-0.42032042721515417
1.39453125,-0.061465438643538914,-0.204833752804841,-0.07575251760218266,0.015551773295618132,-0.0036942168710906997,-0.235905315107913,-0.23378676991621472,-0.009514824290999924
1.3984375,0.33572785049462384,0.26451209944323784,0.13439441895341506,0.12111012138842531,-0.09924334105480484,-0.02326786130455255,-0.024038946581693865,0.32706939400434754
1.40234375,0.4370992186170935,0.5156822885671314,0.4784156375761711,0.43060626747587033,0.4932614310667525,0.613947455780256,0.5989160158089172,0.47111371770172705
1.40625,0.7366626432701038,0.7653790065456456,0.8679597954696294,0.6417996707177926,0.7471600128380796,0.883480065506624,0.7644141787428463,0.5555237254529386
1.41015625,0.8751013758561614,1.1711005838797166,1.0217691641039555,1.0785438158782796,0.9787917108283416,0.8673506821999128,0.9909445764662999,1.037058002201759
1.4140625,1.0069595512884595,1.1881565717401348,1.1677025622928716,0.9186170867713168,1.3041753950472907,1.1181795850799978,0.9914364717906559,1.2491886722287717
1.41796875,1.0366968439870516,1.0511785031291276,1.215396827314557,1.092459677652906,1.0938277979450037,1.0828627564909468,1.204328527431084,1.064484489805506
1.421875,0.8505327130228107,0.9811612507518421,0.8118854648166394,0.9437445992673891,0.8833186878243249,0.9437303059945942,1.1099120252190064,1.0666548364405628
1.42578125,0.8183010165888955,0.8708577793843009,0.7760885164330218,0.7909804790934246,0.7466410735066017,0.752340481822567,0.9274484854200954,0.6668479528491197
1.4296875,0.5647571020191448,0.5157914859541269,0.5998170713104539,0.5426798677707728,0.7051082668458912,0.521619172041066,0.5584944052124639,0.4906684365512251
1.43359375,0.27079437796868366,0.24206394646045046,0.31549888578091795,0.20596054151278004,0.3381066906853049,0.20693797599485908,0.3395915565989052,0.40053326738431605
1.4375,0.09739599938118379,-0.02612969657740359,0.03854819032162387,0.07311735950033786,-0.03371934971280616,-0.00637568557907206,0.030671761251675388,0.11148628189641521
1.44140625,-0.026368152289638874,-0.1593642769518431,-0.21530554893122286,-0.24106551227105089,-0.1329188330026665,-0.20104407612688346,-0.1575283882911277,-0.014213077468460705
1.4453125,-0.4307906040901341,-0.26458549678291704,-0.32891741615032083,-0.37780507177925576,-0.4117208404079512,-0.3470973969141984,-0.421596393799086,-0.20277853329111414
1.44921875,-0.5243741575791531,-0.5962288481842395,-0.5155348580076649,-0.5742799403292844,-0.5398961899110235,-0.48048523135096827,-0.43793423761193806,-0.40495999559045115
1.453125,-0.3314059645823392,-0.5961133929028666,-0.7062089469154778,-0.44909687817334076,-0.7447598172586731,-0.469747387191545,-0.7098405872105431,-0.4771924107558879
1.45703125,-0.6360713214841867,-0.6320849999567925,-0.44907348986061746,-0.7919831637843338,-0.7134854359430592,-0.7358239208057642,-0.5963602783539498,-0.714681311358987
1.4609375,-0.7604808012762397,-0.8123365841348309,-1.032530563623535,-0.9999085743953904,-0.8015038628079911,-0.730519786571377,-1.0613811282058705,-0.8873556552803202
1.46484375,-1.0840707220273826,-1.0246565559187915,-0.8846539310725814,-0.9207652535592636,-1.1953487373447673,-1.0372171957930902,-1.015179352649354,-0.8626937794965945
1.46875,-1.1278798336329194,-1.0962522120170295,-1.13687592271599,-1.2711420740514414,-1.1514465484732004,-1.3250878333082312,-1.0760366499285263,-1.06785145411513
1.47265625,-1.3049426146893632,-1.3775779179456706,-1.254763649560293,-1.3142614266583772,-1.3143708389252902,-1.4262253811901062,-1.3020583921732307,-1.286190023724146
1.4765625,-1.3623456564356449,-1.611355264487539,-1.3887739537095647,-1.4456596728209765,-1.543285247989508,-1.5917377025939732,-1.4878798459144607,-1.4480574129323964
1.48046875,-1.46589942016924,-1.6013305471772303,-1.5485922387706081,-1.4911183303272968,-1.2925591486221006,-1.5039616091306902,-1.3488322955446246,-1.4865195976999879
1.484375,-1.4175035155044386,-1.282062513131495,-1.3730619932692556,-1.479904638667478,-1.3213828081501222,-1.135582975608537,-1.5057774236611792,-1.3263462500957584
1.48828125,-1.2594168842040547,-1.2585041459969613,-1.1319492313535195,-1.0401926496668492,-1.1481700870054639,-1.1660767436733976,-1.3393276558453406,-1.2117442234187397
1.4921875,-0.8031628810501601,-0.9064136183315562,-0.8544880679742578,-0.9477468139408911,-0.7658181141168485,-0.8638466384673681,-0.8754466097679747,-0.8032106735177315
1.49609375,-0.35893695281115084,-0.364181832870866,-0.49975781193694824,-0.3220441778224987,-0.5013697900157745,-0.5386612213819916,-0.3996501931482361,-0.48068369940346495
1.5,0.030119821556757385,-0.16041603339265048,-0.18782230642088252,-0.14938328721663524,-0.03320560181381882,0.09782897575664108,-0.03675398067386004,-0.06705046979352965
1.50390625,0.5579707259589066,0.44066523300343424,0.41015758063396635,0.5913495034315135,0.36579733810684495,0.5332544441435272,0.4685146611319428,0.3027626026741378
1.5078125,0.8507044445822286,1.0728672406854063,0.7984280130064154,0.7641397986007368,1.0885385935182104,0.9946216292263664,0.8828641817750501,0.8158822298927813
1.51171875,1.0389705819096506,1.2125996800988772,1.2408251932188004,1.1235183186134323,1.1755902823525437,1.1033429751411676,1.182767275820351,1.2766808538825343
1.515625,1.4434657439066518,1.3258925874150116,1.397316376641745,1.394919668781698,1.2760996769084387,1.4190806565036496,1.427806974707009,1.3433474443642186
1.51953125,1.2338565956237717,1.4375787003950775,1.3349943556805224,1.5201072230708381,1.473811749908649,1.5132739648111977,1.5153732878925463,1.4799069132351244
1.5234375,1.4493864741591156,1.7138789759007573,1.4522132047371479,1.4203182426503527,1.4656698283787268,1.3671124980732385,1.2736284511525227,1.3851585935852628
1.52734375,1.3521656777116775,1.5824060671608835,1.4354789650999003,1.1972905120371282,1.3167089218469585,1.3139122470758384,1.4261529330888683,1.2316168677568224
1.53125,1.2158463116811737,1.2628100334727184,1.2514357909202751,1.057370045084569,1.2379573423608101,1.1554801737264493,1.1393900808280109,1.240899933153016
1.53515625,1.0337555726810763,0.7249459453009479,0.9254490520567769,1.063625099286537,0.9113537449222543,1.016012976911667,0.9085633489776435,0.9693063038204963
1.5390625,0.729787811064073,0.7569470573952667,0.7428786368893464,0.8240917310525964,0.7719387404514061,0.9394515562958264,0.7159118746638983,0.8686794465559383
1.54296875,0.6862053975523073,0.6044353140508807,0.8823095180685514,0.5966147606668077,0.7177077195310937,0.6914026509929435,0.7998108070170208,0.5874316048395916
1.546875,0.5861364298137307,0.6011646684775879,0.6845497192336174,0.42059783544167034,0.5417770604936465,0.5841663456944388,0.651375200802599,0.575764143072376
1.55078125,0.3509093947551444,0.6433091505246571,0.6615663050764072,0.48596991267925,0.4527360775031317,0.3317366145481679,0.38301774527565435,0.4810233888009199
1.5546875,0.3862788150164752,0.40960331449297377,0.3335347065039964,0.43849179049497855,0.38398227282261965,0.30288754706566595,0.44350910616583605,0.3445906954114552
1.55859375,0.1424025911207493,0.17239028706182594,0.18669272441591236,-0.015842575434037998,0.03997567701249888,0.08484328259506264,0.11093105466087441,0.07679116342892583
1.5625,-0.060249136392509096,-0.009579305215071499,0.09332785124637102,-0.09488113611684745,0.03353662082478731,-0.14362323006448519,-0.10446777900593684,-0.174362852628348
1.56640625,-0.16129205041968184,-0.1859167298723522,-0.38216628190424345,-0.42006200500013563,-0.2968330449472934,-0.3693683600583986,-0.2956717992367177,-0.1662866084975471
1.5703125,-0.5107332535630932,-0.5685142031450505,-0.5221339954095585,-0.5274827254294033,-0.4811135248831546,-0.29010307741886104,-0.5153657332979162,-0.568272650341396
1.57421875,-0.7706368643242874,-0.8858428614234402,-0.925436881077434,-0.9534139375317688,-0.8525555126082258,-0.7154045915475405,-0.7377474155130648,-0.8946277076873863
1.578125,-1.0985897819390458,-1.1204741748704747,-1.0915956241022777,-0.8498427717070762,-0.9893972791520562,-1.0291597390570257,-1.0773047257314454,-1.096037155925296
1.58203125,-1.0032419952931813,-1.1700107835477611,-0.997674849701021,-1.0018186902148398,-1.2325096970047742,-1.219256149078125,-1.1822694163541425,-1.2751045801782566
1.5859375,-1.0328201001095911,-1.1470300939650258,-1.149772942502049,-1.137441383454143,-1.051316635098733,-1.025624051210084,-1.06511727744906,-1.0573962268895116
1.58984375,-0.8452661490615125,-0.9724605026971063,-1.066516202222198,-1.2456431707248243,-0.8540519467263912,-0.9596490303888865,-0.9597468930016996,-1.022795305029566
1.59375,-0.7595103643062139,-0.8144173789688005,-0.7142185062318424,-0.6629176310508613,-0.7853440859317586,-0.6375222177378812,-0.6347941877213534,-0.764559927042343
1.59765625,-0.5407091258007913,-0.4414004385569705,-0.4550340656214668,-0.6445923690254125,-0.4437183432143124,-0.42509640225801393,-0.6660865947261226,-0.27326004236282025
1.6015625,-0.23045999074664086,-0.03534324796385971,-0.2213490115294945,-0.18390428091642338,-0.11434532409213474,-0.23082408845603217,-0.3332475079025107,-0.2744668447690056
1.60546875,-0.030486682731697357,0.21631502461604216,0.11140615518658108,0.11555980285151085,0.15854690886295117,0.17035222252269516,0.14316004886830677,0.27234956268592825
1.609375,0.3767232771757084,0.4268170245155601,0.42081542647353865,0.432508774061393,0.3462980377366961,0.4710930686439542,0.45141521966709447,0.4874217103355156
1.61328125,0.635952027111475,0.5044593084500392,0.6162850160476631,0.5228771409017355,0.43662526371480703,0.5954929215258467,0.4588650067746253,0.625180363329877
1.6171875,0.6055615452425287,0.7884672577623284,0.8114841850522233,0.6897355978620168,0.6873577923340414,0.6877000743270084,0.6442967417601585,0.7118599602860544
1.62109375,0.6413598070129917,0.5402011085250059,0.5837533419133177,0.6086918154997472,0.5553606504892953,0.634108476317913,0.7222153473395393,0.698842009929459
1.625,0.5490559539166644,0.5751920141501935,0.7333228532739019,0.4731319820284478,0.6059585946732412,0.6236697527531405,0.5027810226512903,0.6001441239715419
1.62890625,0.48409423325700085,0.2222425446906629,0.13390611011024708,0.11989779138272796,0.3440260925748212,0.23178671149053373,0.3233919124130227,0.4656334936150575
1.6328125,0.23002384698339845,0.1797294269917035,0.17945174846069223,0.0762831018816243,0.07015236807130848,0.13341880692966818,0.04415319526869102,0.2540526053663655
1.63671875,-0.11523143039864259,-0.046570966591691236,0.16185370538530508,-0.003167044174290928,0.12202381926794814,0.05005906914486509,-0.13168788913580942,0.1333169729278102
1.640625,-0.2614093470059046,-0.22824239079058434,-0.07254542185672,-0.018471790220042528,-0.0291754123269667,-0.1898861830718427,-0.09369053678600592,-0.08428871321180911
1.64453125,-0.15572037734679414,-0.2899141050610839,-0.2651509902421574,-0.25470189649056385,-0.21916130630962272,-0.19143560429072587,-0.2811785949432831,-0.3246083955310304
1.6484375,-0.25990289725991234,-0.46782755937632226,-0.18988498951928667,-0.4632359809221608,-0.291537855402872,-0.2010365938127162,-0.3430441196777336,-0.2335365030154515
1.65234375,-0.14588824795015876,-0.2958444614355066,-0.4547674040061689,-0.2985403016768005,-0.30364775416920964,-0.22608213957313145,-0.5091398470098896,-0.31755198392066203
1.65625,-0.36682021533983683,-0.42832549976794737,-0.3372653709595107,-0.2890298071400664,-0.25329943197153376,-0.475168766609092,-0.34576141226789936,-0.46455640401337445
1.66015625,-0.5939083330309469,-0.4493454783184667,-0.2936488190782286,-0.3420134360187711,-0.26950337644298156,-0.29216129473540087,-0.443568833507726,-0.4268716223420268
1.6640625,-0.5237687316696368,-0.3309204613104501,-0.3869731921484646,-0.45796958432480894,-0.59566756285913,-0.6375949704750243,-0.5012136819482866,-0.5793432164449082
1.66796875,-0.6440841289935815,-0.621274719466461,-0.7600299100350717,-0.6924850892856387,-0.7219013448038097,-0.7139603019687528,-0.9096250223396913,-0.5084454842407673
1.671875,-0.8091851428508055,-0.8966909994226542,-0.8227642946036825,-0.623684756258766,-0.8209815768042151,-0.8348559920863021,-0.7992306644620627,-0.5742745751917152
1.67578125,-0.866756118253613,-0.9456735403735318,-1.0201676428889237,-0.9074494818126586,-0.9564492045987767,-0.9507888485075963,-0.820538436240823,-0.775490766634275
1.6796875,-0.8757673594310205,-0.6397729282722244,-0.8543015561948747,-0.9231858119083485,-0.8858465128198612,-0.9310044102934635,-0.8982284938997348,-0.8173048995914418
1.68359375,-0.8330110987526681,-0.7889518844537131,-0.8551401269010206,-0.8032559743395378,-0.7920247504484209,-0.6815767639782059,-0.7362860298158806,-0.7281824750339907
1.6875,-0.6833175514684731,-0.8731096880313809,-0.8082875892526004,-0.7606672640640513,-0.46453534350004455,-0.6551749795368218,-0.6451084795070797,-0.7572193406497049
1.69140625,-0.5036708624728536,-0.4305591797735722,-0.18823892067602546,-0.43167481457526996,-0.4370197281196877,-0.31983799662242796,-0.5263634680142774,-0.3498808977088014
1.6953125,-0.13597998066430733,-0.06313969197848507,-0.06250541776533672,0.032697447242436256,-0.03106693900880598,0.029036591125259206,0.16230024251494465,0.09072341937139138
1.69921875,0.4136551260301861,0.5358467284631458,0.3652813128726439,0.32246611608075526,0.3193717599044775,0.40560478268769,0.3386767852649995,0.35679912817816584
1.703125,0.9603440832303629,0.8707693970897876,0.7411191575007329,0.8244587577279548,0.986213217226801,0.7288093937838167,0.7944043097288563,0.8387603087333525
1.70703125,1.1362450798088604,1.1069786209468575,1.2208084267160277,1.1179690663557178,1.1989623969630743,1.3389233423495326,1.126490414258399,1.1421048044132074
1.7109375,1.521012222857678,1.3218525225262736,1.480071014175812,1.7197200841083586,1.398476348629668,1.3824851520665504,1.3344278095745554,1.4051270862844418
1.71484375,1.6237012251897966,1.5023772007393013,1.5741086454703894,1.5769182466410996,1.547908206565119,1.438285651801793,1.6725777972515519,1.4557171582959612
1.71875,1.6569139931228443,1.6475671283253543,1.7994976086994445,1.5846907027867483,1.6087596030777156,1.6023821598016672,1.6519895398587072,1.5546158931428145
1.72265625,1.270503320819136,1.3846966125201576,1.5147729684288487,1.6648334090056496,1.493787528369377,1.452580437851861,1.542362288257894,1.5209744237182212
1.7265625,1.1400219443440462,1.3864813806638878,1.5119388652154595,1.1269539205860883,1.4306994407188127,1.333340699996851,1.4268602617591246,1.2818766232107148
1.73046875,1.0582259975722383,0.8802495377316084,1.1319342031465067,1.0547596608746577,1.1332198203354196,1.0833864243049125,0.8145588562435169,1.0845158061779103
1.734375,0.7350244216338249,0.7544714202345584,0.952253789491103,0.7621616593350771,1.000944463073576,0.8347780563426569,0.8356935529486452,0.7531176714081778
1.73828125,0.45148109039369977,0.5987324180400418,0.41807626483810345,0.5410048510765253,0.6945291284111356,0.4570746126979409,0.4453930217282307,0.49849719538925474
1.7421875,0.19619854752985408,0.27751440488521034,0.38935549028199135,0.2375998657404634,0.33739611755128035,0.33431121304415035,0.3131976747537906,0.44162514758828514
1.74609375,0.38678171452738497,0.12170807503343256,0.24295712705355219,0.18196505496193793,0.04434137000112903,0.18095830839992133,0.10649684615969109,0.20626630812700308
1.75,-0.17803572683885555,-0.11023368074630437,-0.08638775545316021,0.07826216639250733,0.0057289661030173345,0.006991252682855797,-0.002304522910749695,0.08681259959230601
1.75390625,0.0020800605518900284,-0.3323122340316015,-0.3231359615816407,-0.1991793740657297,-0.26845678231947434,-0.22211053954502485,-0.04645165590029385,-0.30525057586939564
1.7578125,-0.455011292601439,-0.2598456434706142,-0.4482524674560754,-0.4268661980023576,-0.24862862506996813,-0.32745692253371095,-0.3577809482578739,-0.4868478776662495
1.76171875,-0.5587043041981528,-0.5981855442244844,-0.6170892607405034,-0.4721651522458332,-0.4766065794402018,-0.5239625843226614,-0.5852018216107113,-0.7429790442057794
1.765625,-0.6852111616085268,-0.8650363215515678,-0.9177365589289296,-0.8957766816480426,-0.6383495415180976,-0.7811362611931935,-0.7265566705851576,-0.925482539193841
1.76953125,-1.1210017554734326,-1.1939182755515843,-1.0143627860289832,-0.8989290108270226,-1.1037853118362224,-1.1154457023105964,-1.0217426808882624,-1.1546147383916345
1.7734375,-1.3981097176689377,-1.1944399725782229,-1.3392259791998808,-1.4570293051453749,-1.4823992537755621,-1.4131493811221083,-1.2523283449164668,-1.3269283141060928
1.77734375,-1.5060854854735308,-1.4123826657378449,-1.6203674563414434,-1.526831670513606,-1.3009276390629936,-1.541530005379013,-1.571941552733162,-1.4456426566010707
1.78125,-1.6097187491111105,-1.8066795798905164,-1.7216214759155106,-1.482238622791052,-1.5152687248155354,-1.550774850346718,-1.53908658706887,-1.7916743646283657
1.78515625,-1.4822710258454463,-1.5144633894900426,-1.6798755081592969,-1.4129607456410993,-1.238161146083802,-1.5628281312935157,-1.7078632003214693,-1.563284972886118
1.7890625,-1.349865440255576,-1.490890670841318,-1.1451191624245933,-1.6822357572672013,-1.405734645603085,-1.3880402906861968,-1.3671309137938192,-1.4391350480772864
1.79296875,-1.1772488635920588,-1.2119811624093424,-1.130300452801331,-1.1487655902422136,-1.239370848785453,-1.1209374343553087,-1.0582194849039728,-1.2311642182090206
1.796875,-0.8669124110699491,-0.8123669245458967,-0.8801619181426524,-0.6578054398182469,-0.8354960064124808,-0.7428730201635338,-0.8433463107114764,-0.742699877125582
1.80078125,-0.43461004803337894,-0.3201405434927471,-0.36839741208514637,-0.4093107390024558,-0.4300836458536177,-0.35265908420011793,-0.5184283184103424,-0.42745691158674937
1.8046875,-0.014492967429730108,-0.14660568849339214,0.07345989714636236,-0.1306897301113463,0.10445609535021921,0.23030841804102498,-0.2516601048354328,-0.06410643234439592
1.80859375,0.37133408264436574,0.37910393636494605,0.12857867494477263,0.4629537293077219,0.43113774896001755,0.3556934730867603,0.3627145978475255,0.3152878565092338
1.8125,0.7071978866289363,0.5666213854466842,0.7364980274172357,0.6525539462460085,0.6774003835329735,0.7600600938521668,0.6220534677545113,0.6637875727136235
1.81640625,0.8304640710680857,0.9335472648906662,0.7855698330192665,0.8322145307783437,0.590719930651874,0.9642924598952682,0.882917042845261,0.8577001609321732
1.8203125,0.9332596354729074,0.8585772416152362,0.9675020991655563,0.9118167041174117,1.0812429950985911,0.92469714812587,0.81529907860784,0.9663282132452707
1.82421875,0.9514206245433112,0.798782734581606,0.6883730841531803,0.7626459235851141,0.8727686421383049,0.9250742936820584,1.0341169473914125,0.796232238514683
1.828125,0.7433003307440261,0.800188065244397,0.8094503705161838,0.6311523825702958,0.8189831371291258,0.7166964529321344,0.6480604592869745,0.8044092987156662
1.83203125,0.7099441936101374,0.6721849204539198,0.6034350383039095,0.78844579224444,0.8428598463004184,0.6259761186932224,0.6837771431081244,0.8119908373182977
1.8359375,0.49590478572848246,0.5568688931843312,0.5547897777301588,0.6073492696559205,0.43436676296423726,0.5544222239126617,0.6624364787948626,0.6954453579872324
1.83984375,0.4652391523401048,0.48974908986466875,0.36899517840186347,0.26397383380585066,0.40215542556950923,0.571672497009848,0.3167476226997685,0.38751538375252725
1.84375,0.19919262620754466,0.37086608047505654,0.3364601870803693,0.2181595660629169,0.28171932380155273,0.21042234029707366,0.3710657361569608,0.4209654071535482
1.84765625,0.3171155937095642,0.40266619297584194,0.3191354901362293,0.475169993014497,0.1798061180995396,0.4372740426012143,0.4361485275210093,0.3551147869689004
1.8515625,0.2093973277352158,0.3677772639700909,0.30932666010372184,0.30425471123834186,0.22267143218242655,0.3340191937049161,0.2931379364305094,0.40090910849600253
1.85546875,0.25186974977492926,0.1825493683393814,0.13510089738890663,0.19214942563882947,0.3458200603900137,0.14843317664094063,0.30083232548009664,0.09305601147040948
1.859375,0.04683379742132665,0.22587106951599034,-0.05230778993837118,0.2625302257341192,-0.020023689646307408,0.24380250828247907,0.20786819825844138,0.09363701725828583
1.86328125,0.059555408956735,0.01241607565521927,0.2719680189664752,0.027633459746738285,-0.09531555805486441,0.1965003530970183,0.13991833692541086,0.029819354882194605
1.8671875,-0.004767262648933374,-0.32913240695791135,0.0882296877744137,-0.23136686544726487,-0.1695588601276288,-0.10372521222563766,-0.29133258160569575,-0.2593562624992747
1.87109375,-0.18997495125477093,-0.3066594661998974,-0.3367184102553049,-0.3048811148155668,-0.5932304446900918,-0.35339072320053694,-0.5330930679424335,-0.5080270270456623
1.875,-0.4905164103506516,-0.49848605122845513,-0.5008471028981057,-0.47803956095139066,-0.6436449176286134,-0.4221001620949943,-0.4576891644873263,-0.5255846320882299
1.87890625,-0.5736728738198665,-0.6444171393761935,-0.6320183787423402,-0.6559077712612281,-0.4562506579021852,-0.7961397272053663,-0.5218101300819912,-0.6100250623273118
1.8828125,-0.7441057118144077,-0.6935430616365853,-0.6613703616975274,-0.7131733930760922,-0.7019283399010482,-0.6058293556282207,-0.6918277684007896,-0.5975717456377003
1.88671875,-0.6033374746609318,-0.6442626001153073,-0.6401306078882341,-0.5606478556450836,-0.6847520606632,-0.5192294741604551,-0.6485444248063503,-0.5420661272207513
1.890625,-0.3401626564991589,-0.348890144818408,-0.3600109649347518,-0.31943525525134964,-0.4153655457003688,-0.20771989199349772,-0.3879527194729734,-0.424470944728124
1.89453125,-0.2979368091814026,-0.10834619081927055,-0.213413009188044,-0.20730105904949997,-0.06074193504440807,-0.23712841284367978,-0.18284780705136924,-0.18612292344931788
1.8984375,0.17385248339771428,0.25189666894946505,0.11315841438432028,0.020171437864639458,0.19467929364691883,0.13588544584150877,0.0987253916993063,0.3476202919540018
1.90234375,0.402142091381526,0.5148722325903906,0.5625765965831895,0.5022656716261504,0.4395634202951747,0.5921006861247783,0.40462398884899586,0.40776388510537553
1.90625,0.75963909246484,0.7363918661475322,0.7952280679693087,0.8295892783605999,0.7952598788171052,0.7098093310105338,0.8882270203986616,0.7788420624269949
1.91015625,1.015351781113608,0.9753862745429769,0.9922432588263828,0.928226970484648,1.0592918428169413,1.1421884354433833,1.0529767793473555,0.9525039667356539
1.9140625,0.8737028699768226,1.1309201897723962,1.3295838791796641,1.0386026646812012,1.0069467713649003,1.3002335263601095,0.9813284568009426,1.3321405921928071
1.91796875,0.8878756453001093,1.0222240200964547,1.062956852277377,1.0832694673853136,1.1837107147919894,0.9707550219889939,1.040726747624334,1.026926312146801
1.921875,1.0093370059431361,0.9801616291610514,1.0798936618003272,1.1264297930878682,0.9741522111239965,1.1369455689789696,0.9259917959538831,0.9971669412661583
1.92578125,0.8151268325545673,0.6746866692322393,0.6896624754323393,0.7956827487875509,0.6054463840240105,0.8386106027804174,0.6466792480233717,0.6731327954695663
1.9296875,0.5067688909161229,0.6096742075934255,0.5483968213454,0.5678318939459125,0.5975729004899983,0.5100886676708205,0.5290416667068781,0.5910109072384866
1.93359375,0.4812306906543447,0.1426999277778639,0.15784128369645237,0.3740682790536782,0.21526898926848892,0.36304822172743356,0.2884492978221679,0.39805242365941623
1.9375,0.11294466964948166,-0.0009522643962229238,0.032657954572015174,0.0480212802643598,0.1632610004865575,0.1782559366953661,0.24793534073290802,-0.061200035829147736
1.94140625,-0.19726961995140477,-0.16394187513934566,-0.13082848566021602,-0.20501751338486962,-0.14645386034018673,-0.007387574069981917,-0.15637402461057398,-0.32639473269337926
1.9453125,-0.32710038727502694,-0.2843407731581945,-0.22187707088478736,-0.2899825349527968,-0.48387484205966463,-0.4819030386894191,-0.5016337222560827,-0.3164168802352616
1.94921875,-0.6018722044595198,-0.4576561639257891,-0.39425877780505003,-0.560799658282561,-0.3486032801641735,-0.4236654291884959,-0.6514137190369824,-0.3507241994191167
1.953125,-0.32866217333010417,-0.624342571048562,-0.5478102325915651,-0.5194238272798286,-0.4341436137578305,-0.4584450848257035,-0.5537400220305412,-0.43825061490065265
1.95703125,-0.5059487961096105,-0.6589224310970961,-0.6030182788922818,-0.556727798623742,-0.827074757347135,-0.5691947627085013,-0.48032525279239935,-0.6548730827118755
1.9609375,-0.8795639988614968,-0.9697276562550383,-0.8107717641447908,-0.6628868819675489,-0.918023765539643,-0.6723034603382703,-0.7540392409113077,-0.8788826734542896
1.96484375,-0.9822457814101662,-0.9993658500559353,-1.0649839144536553,-0.9957524838216665,-1.1633055857830563,-1.0414843303144758,-1.0741506771152822,-0.9283822555356
1.96875,-1.031405584796474,-1.1102527381030376,-1.1608763028824567,-1.0877916070710372,-1.1367818191536458,-1.2648622596366172,-0.9914785754186712,-1.0581595957853043
1.97265625,-1.2360936033825314,-1.266840566058566,-1.4770436364038244,-1.405389349690353,-1.3539304752935701,-1.1489635174318802,-1.4009320700410766,-1.2120653152861893
1.9765625,-1.4700922791814652,-1.4981910529142666,-1.461971103413884,-1.6852508277007054,-1.1851400052625485,-1.529379112083111,-1.3379378694220923,-1.496646405544057
1.98046875,-1.1449787330602326,-1.5540605265249183,-1.2684941339590319,-1.5944611629675387,-1.483969549743126,-1.5700968828129465,-1.681206043292637,-1.4662041927669076
1.984375,-1.283834359929553,-1.3278241561460105,-1.4605775287333416,-1.3285878903060098,-1.3563020752346289,-1.4472423627965274,-1.5120794509565125,-1.2704619805703208
1.98828125,-1.1727583596875868,-1.2332689792799902,-1.188917010505367,-1.18701926239848,-1.1824456972764608,-1.1834873784736948,-1.0687479578028887,-1.2896605129009746
1.9921875,-0.853625224294982,-0.9566486246899981,-0.9142480481073542,-0.8232360318638694,-0.8015031060686384,-0.8984543736125771,-0.8003331577474172,-0.9373448269390445
1.99609375,-0.5482700045217952,-0.4455408387524949,-0.4370165862706272,-0.45486247732721663,-0.5695139892926715,-0.45196310653644833,-0.5376283411037732,-0.6557681944222715
2.0,0.14658916049022047,0.07840791500118455,0.23166852377481098,0.12304045323661413,0.01517384723163756,0.09875500101613806,-0.06515669062934612,-0.08219883625574932
2.00390625,0.29848175341654737,0.48160413769746796,0.31109850588170884,0.30043334884969153,0.46523909722994433,0.5555095033703062,0.467621501646804,0.372024344460433
2.0078125,0.8935862386939186,0.899577691316183,0.9022281842109985,0.9038642220095938,0.9227065436946078,0.8022607742811436,0.8577346637959419,0.8924616309349871
2.01171875,1.2898034599857555,1.0639251066896982,1.1089738562875016,1.2368937020390023,1.2784534456451644,1.1975791749408042,1.3414391000007955,0.9841666391361207
2.015625,1.0475925249902434,1.420117599237991,1.6412949691645276,1.3942790286874442,1.3607606710566253,1.492379561921437,1.3287908900826495,1.3562798892172074
2.01953125,1.4368841399904315,1.4189377555960092,1.4427102425591034,1.4595913210416633,1.2920962063587849,1.3713929937583165,1.642251631468083,1.5849731828727538
2.0234375,1.4467485376348326,1.5116072401152272,1.5289840557188963,1.488927632412997,1.4822982564529212,1.4919087083883027,1.5805922860875012,1.4184689223318898
2.02734375,1.3553496796784776,1.2622131662481244,1.3265640695426022,1.2206321491268382,1.3187184494014261,1.3168394489010051,1.22519622136974,1.2426576618158365
2.03125,1.1229491739440776,1.2288503695134694,1.209764526436611,1.0896938017484437,1.0638352164910871,1.1710286820997502,1.1269587427503658,1.3204238112233406
2.03515625,1.0482470633568928,0.9331468398471354,1.1209851050945243,1.0395503643262327,0.9968138051521203,0.9893470297614149,0.8592357344614433,0.9137734820667289
2.0390625,0.8765215506303076,0.7599854031948167,0.8379754741676974,0.8723863790545631,0.7691198150194549,0.8584258799483517,0.7120015751148296,0.6061618165645429
2.04296875,0.5753700693222317,0.7596965481836399,0.686610386697838,0.6576304491175973,0.5893775875897803,0.7286623234351889,0.5897877065787182,0.6945879657675772
2.046875,0.737848514076594,0.5760995873779243,0.529321526675364,0.6127253510108638,0.5151412859773971,0.6673465020873494,0.8676917747119901,0.40532040008265663
2.05078125,0.5422792573062716,0.36706872395949997,0.5328149758251363,0.47449910944241647,0.5448814655666185,0.4631941716183989,0.5313964287444715,0.6087184026409443
2.0546875,0.204467877781147,0.3137159837665485,0.32593652442380844,0.3267522568873452,0.29328642042612146,0.21326079754543326,0.3100411388544361,0.3932303280174414
2.05859375,0.15464973991755004,0.17324194813282778,0.18072524293276035,0.19956369760552448,0.196952034030989,0.2449518002661983,0.02068951145670639,0.14013038468413647
2.0625,0.05139999748861279,0.016154026621042497,-0.1098817958541227,-0.07211980892532315,-0.0807906877126876,-0.03212883733001069,0.0017063857138581856,-0.1099026846319794
2.06640625,-0.32022651678136305,-0.2199386623219206,-0.333518569818827,-0.3259186463796196,-0.28669218380134553,-0.3814231930917637,-0.2983186835711205,-0.30090839386286683
2.0703125,-0.6137259348510802,-0.6159802754204339,-0.5578800184893646,-0.5383688639811453,-0.6107874333913207,-0.5980513199589073,-0.6590198753324354,-0.42331309899624403
2.07421875,-0.9258128462342438,-0.8837440619481232,-1.040964533599488,-0.8222349329683545,-0.7662072954211885,-0.7189108377050514,-0.8232776801676875,-0.8343104678816349
2.078125,-1.0485636582927023,-0.9489863975087452,-1.0400780553403222,-0.9471820941264408,-1.027447900244524,-0.9341480108867013,-1.0140570062310361,-0.8241133130715995
2.08203125,-1.097107339792596,-0.9826152226502101,-1.0599510110869466,-1.1341730269598878,-1.0636094869485226,-1.1791654362037436,-1.1635855946250553,-1.095471299031742
2.0859375,-1.144593028362016,-1.0172831695328919,-1.1989417753663223,-1.0687165478522007,-1.0799386173505885,-1.0700235073625584,-1.1154878215875612,-1.0792813331806665
2.08984375,-0.9103691411863198,-0.9483195002938763,-1.0476088768259542,-0.8485162840068009,-0.9190840832544533,-1.0741693984860925,-0.9096503614737843,-1.136646263299733
2.09375,-0.619536017326745,-0.6438660998164678,-0.7302490370891145,-0.6513639293378175,-0.7513372060525886,-0.757367179575236,-0.6388161792661279,-0.8003226337746221
2.09765625,-0.7288212112674824,-0.5516669041227574,-0.4678404718361242,-0.4539709800090147,-0.42793627218287894,-0.5983668706076452,-0.3814837633172674,-0.6898100764163237
2.1015625,-0.07334706674060543,-0.25690148954560116,-0.08158651856071203,-0.03136470315581433,-0.27221475947994744,-0.26451448916420495,-0.258999401381699,-0.09301242205657219
2.10546875,0.024432082188198312,0.13509162770086192,0.42003935791925934,0.15061036637688457,0.04608282288047162,0.003202959711971931,0.10360073961729241,0.27939755352004714
2.109375,0.519251920630575,0.4944256272855537,0.3392111918860515,0.2756843329779942,0.2736152263308942,0.2872992575532393,0.3674079655555623,0.43698053224538225
2.11328125,0.7343807208454383,0.6192750231152179,0.6232217890618553,0.5338253403585842,0.40574893989551764,0.577618483857131,0.5531201249492471,0.7112326638984878
2.1171875,0.7180437261994308,0.7326381122075019,0.5407190004369058,0.6704204112004226,0.6199884763337329,0.7217117261854744,0.6712365256081396,0.6084325311168812
2.12109375,0.5392510177158749,0.5160065329521679,0.6133445440241223,0.6424015647739107,0.5168359086601619,0.614672210816251,0.7401969459184824,0.5103145256798475
2.125,0.550598479324761,0.4589425677052097,0.2973100575518345,0.4030939318953154,0.4837966746948659,0.5742904162397396,0.666383721009297,0.48843330200710966
2.12890625,0.402025391345931,0.41459068274562755,0.42763537484617015,0.22797540706442962,0.35660412957298065,0.3302384480925416,0.44862340199588047,0.3347959341050999
2.1328125,0.1125074891762203,0.34448805145783945,0.24158812596456794,-0.07944065335463771,0.04845730787593977,0.08765922578269277,0.10924919354878096,-0.09977364823908588
2.13671875,0.0008476559913229275,0.03440216114394996,0.07833038399639121,-0.02673758755105094,0.19510184437285755,-0.0122520447074737,0.052393707994600386,0.042526393149684906
2.140625,0.00018313366297592615,-0.2029889525320197,-0.07358683581918128,-0.24273868400355164,-0.18377628118278305,-0.13495566253129834,-0.20564831524844346,-0.0736382244562878
2.14453125,-0.10955563580831976,-0.165574232475815,-0.5021387229510121,-0.2786194467859714,-0.1895898290686633,-0.19660889289433833,-0.27543758442230953,-0.06560104137423822
2.1484375,-0.3311695209056851,-0.3108709232612335,-0.10590930249697528,-0.3638671883156443,-0.31888770496784424,-0.1423996961779724,-0.2791521508230935,-0.25141104308060624
2.15234375,-0.33850933240097825,-0.13407226340970818,-0.5896021227125761,-0.19722587921741597,-0.41599739547986037,-0.2756085766797772,-0.31243015610772584,-0.3272968404848485
2.15625,-0.41443056219700425,-0.24562938894362246,-0.3428055242041145,-0.3064661445497541,-0.42720423633859594,-0.396664703100212,-0.5196423194652426,-0.38020475840834056
2.16015625,-0.3358218812274535,-0.4073695794875525,-0.268347578334851,-0.5016581937733929,-0.21948697132654785,-0.40161139400066537,-0.479569127915801,-0.5121279787431792
2.1640625,-0.60262472775015,-0.5420596884007163,-0.3523067581498597,-0.5451175647198682,-0.573732722002523,-0.5534825255095056,-0.5483120721441213,-0.32901276409108926
2.16796875,-0.7218054481847647,-0.4873153898864312,-0.5814143037237915,-0.5757778822514402,-0.7326061816628622,-0.6304926860890494,-0.6968169236114098,-0.7005976871528214
2.171875,-0.7464642131507747,-0.697260551984622,-0.7039876317568701,-0.6751901092913455,-0.7393965822336297,-1.0063077439401278,-0.7757160166201256,-0.5837925242531313
2.17578125,-0.783528167203361,-0.8572137536119209,-0.86097830455083,-0.8862105809609611,-0.8029301224409092,-0.7492871958264515,-0.7296680071606438,-0.9514406626540771
2.1796875,-0.9225963671092153,-0.9976364953434671,-0.929637838143341,-0.8668478039644117,-0.9788121735262091,-0.9278311837534208,-1.062099441909953,-0.7499847211313944
2.18359375,-0.8395822998525188,-0.6873596885968376,-0.9248957337139667,-0.9594259732760168,-0.7624573753312586,-0.9178557004783823,-0.9266780006535981,-0.9469346348871577
2.1875,-0.8000501998929365,-0.7789814187330233,-0.7906294856876025,-0.6831984262310269,-0.628682910035131,-0.7547006864151803,-0.7215841685107919,-0.7685339725980695
2.19140625,-0.2461134199489945,-0.3452710327565638,-0.2988369450618265,-0.2515984020262265,-0.3319785395329701,-0.38026791367547336,-0.43003874009063536,-0.6143137422739824
2.1953125,-0.16415270877924656,-0.24789344909458502,0.04823084545427089,-0.13040161748677553,-0.1756281822559582,0.029556412298642774,-0.035847581131224826,-0.08558060281185753
2.19921875,0.4417025572253258,0.4242163903098337,0.37121005915688315,0.4414657000119227,0.40959337463842416,0.25885762540344726,0.5189845310731482,0.37825765058753985
2.203125,0.8971191212991912,0.5932763412466816,0.9270186577490811,0.6734572983893323,0.7901990663785508,0.7687540648765083,0.7371940441028865,0.7009456409612228
2.20703125,1.247316886098449,1.2119560869088566,1.1927787449750722,1.2474388055656362,1.152519963044822,1.004477102689925,1.0836015027711723,1.1027682307308484
2.2109375,1.4169675192883582,1.3940692557963943,1.4584140227714095,1.3413595112961174,1.474655062221673,1.4538193001515456,1.3076036783781833,1.388635007078058
2.21484375,1.4674860079025476,1.798142609475436,1.506659703829693,1.5979723681639852,1.6763361022458216,1.395953919393606,1.547759483901402,1.6011753066102459
2.21875,1.409877077795749,1.6640649964449914,1.60746176570356,1.6140749801189238,1.6000441567145403,1.6549767528672543,1.6225160631700772,1.61262326289413
2.22265625,1.534806196607442,1.6507857792359313,1.5714470280940835,1.5318789477345245,1.4662168472196682,1.3169652677670765,1.4971387582164943,1.3922721698254892
2.2265625,1.5674559246478479,1.3734450305889023,1.3815324005849936,1.4769223456859326,1.2900610744895107,1.4401158091812676,1.2057833814388246,1.280677747141041
2.23046875,1.31926466953475,1.0314283690662538,1.152124156675552,1.0455875534869332,0.9843404290749188,1.0466626289711982,1.1697577538389687,1.0936976767564492
2.234375,0.9011133613492138,0.8173836202375722,0.9933176655708958,0.8490504629211355,0.8519390616884918,0.7562007428525553,0.9019817733147574,0.8782187048139516
2.23828125,0.4815441827856867,0.7610543931090785,0.7129221421983076,0.6238041899741367,0.6064236491316135,0.7163639390750168,0.5985357282857987,0.6961052925537357
2.2421875,0.41055252637541806,0.3100986445892594,0.10107739685685052,0.3756345302819005,0.35635761772901886,0.4456438216907835,0.20689372672159556,0.48656763951864446
2.24609375,0.2326599636892829,0.24745401181202112,0.0691414305303428,0.09122238874986198,0.1469363371717386,0.13335697728061452,0.11612446241148844,0.3243585555827688
2.25,-0.040722382696439366,0.0366556732773847,-0.0027252542451090466,0.03824880813649186,-0.21587355249772033,0.03892638757410254,0.041379973630580554,-0.2357434222781265
2.25390625,-0.15776326062420554,-0.2118393224733703,-0.27589779999675446,-0.10061883464066912,-0.3387096408124208,-0.2217263034306702,-0.29812430731854916,-0.2407315938431851
2.2578125,-0.32016276303602703,-0.21591207053971334,-0.3551410261592743,-0.28409127046019766,-0.2006169955917107,-0.35506407784341093,-0.22708845279948786,-0.3583885053046341
2.26171875,-0.6203415674910537,-0.5962238159824494,-0.5594055939133703,-0.6624482452824609,-0.4996525992007342,-0.7038926146719666,-0.856965480623169,-0.4961552280679584
2.265625,-0.8924479100678082,-0.8608448593519478,-0.882257996387623,-0.9201919983458131,-0.8127431252299997,-0.7815577879196511,-0.929372218193055,-0.9444892216212383
2.26953125,-0.8558439701392149,-1.043086720806225,-1.1290764129736566,-1.0955986371582809,-0.9268845270346555,-1.2686064820315797,-0.9456162837265795,-1.0341828385029208
2.2734375,-1.3600371766263453,-1.325944422167077,-1.4340003021678331,-1.3637895086235712,-1.4216541725256127,-1.382898103572027,-1.3814964853705474,-1.3339556059187865
2.27734375,-1.5914492981337225,-1.5162174059415292,-1.4827296611249512,-1.3479914778682844,-1.5326464239772162,-1.6704345772270401,-1.4229248413954767,-1.6049773403889496
2.28125,-1.6421131971766283,-1.5874074236980045,-1.4807766532954552,-1.6468864046811507,-1.505396630480909,-1.6850512549835108,-1.4560928659994894,-1.708100527282533
2.28515625,-1.6862641949550354,-1.3597218779421936,-1.6535198412514516,-1.5853822550844738,-1.4487944813390712,-1.6857793124586635,-1.6061019523739735,-1.703163163264299
2.2890625,-1.423285878152242,-1.4003484014934096,-1.3314441689905585,-1.4001839267699505,-1.3793141741796004,-1.320026416119479,-1.6025144909633542,-1.442972760143881
2.29296875,-1.4038804628555743,-1.251217146451988,-1.0902101242015196,-1.423680127760122,-1.244404275242297,-1.1778286722180271,-1.2626839778421268,-1.0160306399816739
2.296875,-0.7122902646525153,-0.8370430196075028,-0.6235742263717637,-0.6824081825256674,-0.8979404222427616,-0.7532899945508317,-0.9174825585515646,-1.036061990505991
2.30078125,-0.4101103554874185,-0.327284608741262,-0.3591836293479449,-0.4877600425037001,-0.4812797134527528,-0.44754015754508236,-0.4884214332201378,-0.48724656193819094
2.3046875,-0.07988053148934778,0.008018621935809949,0.030611550570770175,0.15178280976428393,0.2561707799981051,-0.010616856677716491,0.15982033540253696,-0.1095276600650602
2.30859375,0.32267865009146374,0.1869907599095615,0.5109046587553262,0.46473383795087925,0.5172730836874297,0.37393199700793994,0.43870771628097005,0.313870751418921
2.3125,0.6357807439124479,0.666165304670129,0.5162861000070729,0.744329264340014,0.6587011197303558,0.558152500722424,0.7079024231260245,0.6061296786531298
2.31640625,0.7632493599098948,0.7738021629108232,0.7978445317680594,0.7587419910371295,0.8785286665715499,0.8248419329728552,0.9257143829903977,0.8323836594034192
2.3203125,1.07333324528006,1.0317980933713389,0.8907063622822486,0.8142771943527214,0.9591012291393687,0.8485975271662647,0.9468636054105581,0.7143040878101887
2.32421875,0.8137477248807501,0.7801487343339155,0.9215349474861566,0.7920453776518266,0.6574222950388833,0.8777488561554468,0.9166436405141701,0.887022767063685
2.328125,0.8867527581467117,0.7881684249091012,0.6290558880787698,0.6778795835712818,0.7496899195123616,0.7274310117994335,0.8512443064921278,0.6909977246781536
2.33203125,0.5719057190721775,0.6066891999964865,0.4998876810099987,0.5081103153822935,0.5042657791324835,0.6461961439082997,0.7652895892658697,0.6914432066644512
2.3359375,0.5442440880781182,0.43658049242990304,0.598349098517621,0.3992575748714057,0.5981064375438508,0.5580046407699116,0.554568489959227,0.6847380696607561
2.33984375,0.3835614237807821,0.4489444613427742,0.3793569374575988,0.45443681717533746,0.4094554747810048,0.500114925175746,0.48459825378121285,0.36751529064805744
2.34375,0.29478290488960596,0.3631674709177635,0.2935598544891963,0.38459880046251993,0.5013193108888311,0.17589219758277924,0.43204629593070265,0.5478696005738046
2.34765625,0.3793832000322864,0.3915648743161996,0.41075385363183975,0.2687187228032322,0.4049233080805718,0.40402415239501255,0.18318312699654732,0.21953267425121387
2.3515625,0.2310585069178472,0.3053322950064336,0.3615922312277783,0.16082651479041898,0.15034791603230863,0.30608906520405016,0.5465311494709797,0.27591107612682964
2.35546875,0.3520860569926111,0.14011617334778673,0.40574969891553725,0.16939179433170662,0.2334083111596319,0.4071954774153673,0.16153221366875187,0.22343333752971686
2.359375,0.08229177992500841,0.17212865066709998,0.042168745310813605,0.11862904811360805,0.2271297303043907,0.16717992844008128,0.2721346226831006,0.04145901255391864
2.36328125,-0.1734376813813582,-0.05509914073542259,0.01743717432375743,0.10252640957434285,0.15039605346195467,-0.0011427426182356246,-0.1395699450571252,-0.15812975511960808
2.3671875,-0.29201844198588456,-0.24492943685553148,-0.06615371383641999,-0.08924861248102185,-0.1278015134208458,-0.11301627661912711,-0.058589795734703964,-0.13857977264531296
2.37109375,-0.18657067236614625,-0.43134798996746715,-0.2755556682964078,-0.3351632796531508,-0.09244883228095963,-0.3753000150245741,-0.4753659916215335,-0.15107556057993077
2.375,-0.2937253956444532,-0.5067525606938953,-0.42294085690444827,-0.6752486819980327,-0.635978862723656,-0.44649435398482673,-0.5395221649940526,-0.48162894802953954
2.37890625,-0.5957794813763796,-0.6244618492626469,-0.5555139863468453,-0.6823812357818231,-0.6527110731555942,-0.8867849255189038,-0.5436545667460779,-0.5834263259686024
2.3828125,-0.705027245343621,-0.6373658533633452,-0.7286358482317802,-0.582115887251974,-0.7298982876962905,-0.7346747982657627,-0.4743332574366651,-0.7348036204165737
2.38671875,-0.5666012139104221,-0.4863452550224725,-0.7036510128927012,-0.6120958479727706,-0.3842263565034202,-0.6018046901874015,-0.661023179932907,-0.5870617634984404
2.390625,-0.29702460095115296,-0.4814672861914865,-0.4275672821455375,-0.41865855478483976,-0.3290456367606558,-0.3686068023775999,-0.4879123046993197,-0.5248251303291502
2.39453125,-0.2106440208525167,-0.11268377864789927,-0.08881566802791152,-0.3671501625747844,-0.19889390647526292,-0.27128193342986157,-0.13710451834061954,-0.17791705453988277
2.3984375,0.06237796353684484,0.11254429929707571,0.1734855299625764,0.053649551745409446,0.10087971184074382,0.170201893053807,0.08085542127873188,0.10796779747641569
2.40234375,0.3779816915492108,0.5305291313410619,0.45003880791591666,0.43928049275498315,0.5155187626426616,0.5217009606351313,0.4581287122471099,0.4546220789680182
2.40625,0.8028617978067899,0.8075544616993702,0.876699567980851,0.8749016444915808,0.7130727189143703,0.7653519086552191,0.6368357581676746,0.9600363436379361
2.41015625,1.130131678942156,0.9808555285613301,1.0042435842779986,1.1482102859027605,1.0091027436886113,0.9342488122271799,1.129783609622354,0.9646772466449209
2.4140625,0.9841326216677775,0.9346144733209742,1.2041661338941954,1.2844930215681176,1.223444910397125,1.1270220412931393,1.2439261106384685,1.27249782887689
2.41796875,1.053590465368023,1.201321656577731,0.9483637627602255,1.1178144734570536,0.9655061519382714,0.9971911707187318,1.1554978436641663,1.1725882013400666
2.421875,0.8751870691858677,1.1088729642818165,1.0902526058192565,1.0204995171085507,0.8527766958362367,0.8547241175327577,0.9647431539871231,1.139203690373011
2.42578125,0.9383834520393513,0.8082356135701554,0.8407781245479202,0.7907058287745317,0.7613512899310602,0.7956517262761055,0.8491457155207001,0.741608262942213
2.4296875,0.5620175335364371,0.4827400370220679,0.45798987430510024,0.46489462016443167,0.7347277383703201,0.5560449143607584,0.3820012963464775,0.47444494505848395
2.43359375,0.2809366180140952,0.3214077164429429,0.41022814713506417,0.14615912698470337,0.27012594467956724,0.3782037097880729,0.16060525689109756,0.3945868468707395
2.4375,-0.07468793195123177,0.15449682788459085,0.12204919582380337,0.0784862249614671,0.06022047261928935,0.13811621815273928,0.14252636547874664,-0.05673314582517122
2.44140625,-0.3372344264871885,-0.2937603303748916,-0.1842616751900798,-0.18548259369602835,-0.1891433449230489,-0.15014653417013116,-0.24758148010157044,-0.027035421057459708
2.4453125,-0.11657286910242692,-0.3445134966102673,-0.34885211865087423,-0.39989902815672396,-0.36583065560149275,-0.368957167659494,-0.32050883861404106,-0.30473721944879134
2.44921875,-0.5843199655578395,-0.3062266516754755,-0.510528832543829,-0.33788635866174266,-0.5046403587123939,-0.6421910781315556,-0.597023993109436,-0.5040870161806121
2.453125,-0.7025456785279784,-0.491171833639739,-0.5086124965231538,-0.4078299706781398,-0.7875400189646768,-0.4553063627166085,-0.4426228857340593,-0.5891174578031004
2.45703125,-0.5734979142559666,-0.6927353594940204,-0.6995144504183876,-0.6206059762687071,-0.7099701845523965,-0.6407455557827895,-0.48191052572074033,-0.5374068834268998
2.4609375,-0.8312871359882219,-0.90879491271178,-1.120902438879226,-0.6897667686855261,-0.8764722065396444,-0.9127420964827049,-0.9517487315391421,-0.9176013557399668
2.46484375,-1.0318677868650061,-0.9960757740933444,-1.2271419258776834,-0.9637759205388783,-1.0739186071737208,-1.0285483371075774,-1.0884822718682758,-0.8598651501235648
2.46875,-1.3171439941317424,-1.264988229982132,-1.1212207204581137,-0.9878118655749866,-1.336693332867068,-1.0332112134744535,-1.3785761157199903,-1.2269130912884425
2.47265625,-1.370485108780264,-1.3338671069836205,-1.2894074969447349,-1.4109943610190754,-1.48473291336371,-1.2002162749985197,-1.2226765725119044,-1.358174883721886
2.4765625,-1.3167111133442573,-1.4480691047731211,-1.430525103040879,-1.5623437127407178,-1.5193035354436204,-1.4110535047506083,-1.3401750750387156,-1.4633447948484126
2.48046875,-1.4968749026281989,-1.4615553433446364,-1.4985043377761595,-1.5134291084783706,-1.3793302241512406,-1.586128178416381,-1.470257675622889,-1.377866111250228
2.484375,-1.4073144745198927,-1.414470758943883,-1.4519478544934294,-1.4384972790687156,-1.394667704472323,-1.519569128467503,-1.4575948021973513,-1.4841439459086323
2.48828125,-1.1043806356729888,-1.377279472505855,-1.1567396427558905,-1.291724497853905,-1.1005924598477892,-1.2458132964630504,-1.1677575503147184,-1.1557195208926625
2.4921875,-0.7617727132980213,-0.9047234204833461,-0.9074150350442004,-0.9898478184111273,-0.9125325146660753,-0.8782258032893999,-0.9416714921796124,-0.8168450770759326
2.49609375,-0.4591614022534329,-0.28277096644804744,-0.3274429246781769,-0.2995786590054187,-0.2554231963258659,-0.23896333922319515,-0.5565532724272523,-0.3481118988190034
2.5,-0.13261939529591835,-0.12511381981472722,0.04421422186435141,0.005479364698452302,0.023056453439241658,0.06309059061343408,-0.173472398354111,-0.11195341745783309
2.50390625,0.5605858403780637,0.38316602938755295,0.5653983393364472,0.5690887478303828,0.6164901006898211,0.36775236738805533,0.43628737117241423,0.34221984186421933
2.5078125,0.866128345291385,0.9919451765690827,0.822859103248566,0.9152694353908424,0.8628959665867969,0.8456118256537921,0.9155358173246403,0.8328435066805264
2.51171875,1.2247880191344012,1.2062213492459126,1.1328834236159044,1.1691137883851803,1.1271133427796998,1.2497642209086022,1.1498436481830834,1.2195173520564415
2.515625,1.420439055728157,1.3748322514203253,1.3737564789874361,1.4993395550243276,1.3284956165441943,1.3207535355444426,1.3074460073692404,1.4261834267170423
2.51953125,1.6151590388187431,1.4270541199330642,1.3942756084973127,1.519594187912198,1.6233635123241692,1.4701126289971513,1.3608608574526677,1.4459432981520817
2.5234375,1.5858926762354444,1.2961298423259955,1.3599445361892932,1.3915106977125782,1.3883688597948842,1.4911160197677225,1.5576239940723882,1.4638262955688501
2.52734375,1.364856982255498,1.4215659181828892,1.310433492096625,1.3015386298482836,1.4744649935361893,1.2748818861892415,1.3554310953368256,1.2377909916977339
2.53125,1.0645686411570146,1.195701614255679,1.2721074732485274,0.9367392218121365,1.3497024367288764,1.4399589169016622,1.1612239081155902,1.2551305735404796
2.53515625,1.0030225385303932,1.0834602169506486,0.9523937902326324,0.9597209840164042,1.0084910029676613,0.9327177871453461,0.8306796571334919,1.0037260164423958
2.5390625,0.9002986890836382,0.8586196713438279,0.8381166283817835,0.945547307471239,0.911163070657878,0.7999393239427519,0.911001109059953,0.8632453547783535
2.54296875,0.7605775683625273,0.6346367013886439,0.6953175568937271,0.5988373189823821,0.5973140392208889,0.7336149655087321,0.8107885120836054,0.6946496961473911
2.546875,0.6241564084066668,0.8149749570691718,0.391986923445788,0.5825773851130385,0.5657486435715137,0.44408414617082254,0.4677861104239912,0.5031297542109195
2.55078125,0.5810689761051968,0.6217138059017162,0.39537058927017377,0.6148767303885729,0.3577739708339107,0.4948651411745181,0.4792515681559313,0.3667663916853878
2.5546875,0.17121356639284727,0.40671084416731546,0.3139341591197628,0.1388474807850369,0.344298598550166,0.14202041801867143,0.30359282156470985,0.3202936257888051
2.55859375,-0.08578184961883292,0.2908274449579483,-0.013123847306964642,0.13448351179917706,0.3666334076327854,0.223596880336971,0.16967464060385756,-0.0030737188594412157
2.5625,-0.12956258090949346,0.05185614809321046,-0.1320044413648716,0.022531662907461572,-0.042201476154430644,-0.19974924745816125,0.06393227941147596,-0.06927380744496608
2.56640625,-0.09638997287464879,-0.36605552138030417,-0.26756673165242645,-0.253837962549041,-0.00803717452904823,-0.34598109277213107,-0.4014382638529356,-0.35751331611843973
2.5703125,-0.4227936840787313,-0.47761250017392376,-0.5772875743607625,-0.5677421070133232,-0.5750356379782229,-0.7290324453908013,-0.6840400089333427,-0.6285441363402187
2.57421875,-0.7328983803559928,-0.9080712177389298,-0.8556274495564825,-0.973892022755847,-0.696404396647319,-0.8002126816447495,-0.8784309935532286,-0.9235775383551279
2.578125,-0.9957901245394236,-1.0772474780270818,-1.0257878467083243,-0.969264750017206,-0.973418183433162,-1.1114797690021863,-1.1422974386114533,-0.8454774806937065
2.58203125,-1.11669794047875,-1.4376054225656527,-1.107923108718911,-1.1058576916949747,-1.137345208008852,-1.035218546477676,-1.1807746856627208,-1.1774753791735713
2.5859375,-1.0276690953913694,-1.031416859440512,-1.2456530166686628,-1.1141745756869017,-1.1562986725427147,-1.152158411245288,-1.1419264783764342,-1.117941975655233
2.58984375,-1.0019316784090775,-1.0064713427569465,-1.1621417115729593,-1.0434949986284665,-1.111401410580453,-0.9219513820476093,-0.7831854698176494,-0.9424731397102962
2.59375,-0.7373884483409692,-0.5369298618967985,-0.690000503004581,-0.7459565272339752,-0.9216101482458613,-0.7283860063488276,-0.7452839351133871,-0.6269599482824396
2.59765625,-0.48102686791809895,-0.46636244783020603,-0.6060496860172,-0.40537999530866253,-0.48889293643652804,-0.48218838735753994,-0.43394765415927944,-0.5179830126732715
2.6015625,-0.1358605590783999,-0.10367440082582353,-0.21943418584545166,-0.13271209352017735,-0.20999271495114918,-0.015120095545773454,-0.09957629695061654,-0.1853754290963418
2.60546875,0.2162563704401511,0.24720307249508638,0.07268778598430174,0.33477434984348664,-0.011908929783208427,0.19594477335095162,0.09878087667824398,-0.09391861005653221
2.609375,0.3334581045385945,0.23682340320908143,0.28280979217137225,0.4266516171126211,0.36329982212781775,0.5476280449416713,0.27565521579009555,0.4152980271905928
2.61328125,0.5630150826255317,0.5843276722325981,0.6122731873736231,0.4055842806677784,0.5880491072040368,0.7317288858480022,0.6213638754310948,0.26260147714522974
2.6171875,0.5398376822819639,0.5837556833649187,0.7519858842281549,0.6251517187262846,0.5636464631744162,0.5595508265700198,0.7111099173374921,0.38539503852246076
2.62109375,0.43290876718888915,0.76162285524283,0.6361984545164087,0.6219649194063235,0.6722956902267375,0.5075349396204074,0.6374057069413361,0.6249204347312658
2.625,0.47492324315793677,0.3615594112608914,0.4095670689208351,0.4950823425256635,0.4322821330895225,0.6012323710425543,0.4220911016902417,0.35128920818839077
2.62890625,0.23942387287124509,0.3756952813994469,0.38630109625436815,0.385969049013128,0.1442497118624554,0.3217692582993305,0.5069869457782489,0.3554745062559466
2.6328125,0.07360472678089798,0.1819191444813375,0.21484731358176617,0.12145968029410856,0.12165376223961752,0.2010504015371216,-0.04272284307351998,0.09047182767535958
2.63671875,-0.00874149507495852,0.2337743921936031,0.049030169430173354,-0.2030076320307417,0.11166825928553016,-0.15289698009731692,0.20614164724394363,-0.17347215070310923
2.640625,-0.09125423082007501,-0.1989358685893584,-0.03468406252443644,0.023676564910095482,-0.22891825383099584,0.0026201628634492657,-0.07415406377466241,-0.20750098297336092
2.64453125,-0.11538359853071442,-0.02551100292530173,-0.12414119517646945,-0.19411859452707136,-0.29682236785379246,-0.27026031221788827,-0.213320759942242,-0.1341712854335787
2.6484375,-0.4732374722348681,-0.2277656355025215,-0.36434826832473344,-0.2742867818706315,-0.34043907888418684,-0.3212635965393632,-0.40707723561370607,-0.2100694624051989
2.65234375,-0.25855594762759493,-0.34299035066400796,-0.48443450730073756,-0.22981224982389525,-0.24527927203338634,-0.45669615974540817,-0.1419310936141566,-0.41671582216692915
2.65625,-0.5446595343699164,-0.39275890279890596,-0.39345534835302776,-0.23458176224903546,-0.5141404316055331,-0.332943824256061,-0.4022352073304074,-0.24113057482741068
2.66015625,-0.380472107015013,-0.4657295679761386,-0.3688571700983827,-0.558031231239883,-0.4462440935088114,-0.5013800877029795,-0.5864655042801732,-0.45110093709706633
2.6640625,-0.6305164322792992,-0.505939670608056,-0.6000405083019315,-0.5934152722733724,-0.4964947328559761,-0.3386527425677307,-0.5549585932483945,-0.6025634750841042
2.66796875,-0.694405431559091,-0.5798324233451648,-0.6916286878691384,-0.6335975604473763,-0.6284607351364278,-0.7416932610397764,-0.5970565839980467,-0.7624048620677776
2.671875,-0.7823666601080114,-0.785893591914877,-0.5594775703199891,-0.6892759883573802,-0.8970800631775646,-0.662956475249803,-0.648888695641274,-0.6811323396419304
2.67578125,-0.8480094251426867,-0.8168700687167136,-0.8801675761976018,-0.8991548681087388,-0.9739676506135382,-0.8073052945027483,-0.6793176773839303,-0.9259194807094518
2.6796875,-0.6500405278247426,-1.0641516236575874,-1.0006801828075742,-0.5679466304793261,-0.9554713957597399,-1.0612745514997846,-1.1139285289643284,-0.9252001754418906
2.68359375,-0.8530755621243311,-0.92509277924033,-0.9626275058690793,-0.798022836123731,-0.9322799600684426,-0.6165032234543799,-0.8931113264725046,-0.8218613240436393
2.6875,-0.5971941924621322,-0.612085185514918,-0.5809227012075415,-0.5565919791917116,-0.6653247108600767,-0.472495233228687,-0.8234899482089969,-0.723665936441903
2.69140625,-0.34065882293662875,-0.3259165247084125,-0.349662768312592,-0.42393139564662663,-0.39710976633659034,-0.3939802559419889,-0.302264242078993,-0.15376623812033566
2.6953125,0.11785937113530276,-0.07388767793676695,-0.03322137950747202,0.0037226598130327207,-0.10894958511621798,0.07215775584933895,-0.1860364279586476,0.22465352239448327
2.69921875,0.48848456116371963,0.3677937062277516,0.276542980839203,0.46583318355059933,0.42074116275889323,0.4084527692956405,0.3856810482960517,0.3776821881349004
2.703125,0.907864504237985,0.9402112889407663,0.9206470842854363,0.7478961200145662,0.7275140358105154,0.8943470976075544,0.8872001966792684,0.9539108866490154
2.70703125,1.179904923752839,1.3047233030442895,1.1614083169834821,1.2547056995658292,1.1276064586043724,0.9934304494149946,1.2331215165376923,1.1659441540873021
2.7109375,1.5257241088876858,1.4958957577849488,1.4415993639129214,1.431019148681201,1.5511350103685564,1.6412580698838668,1.5912403885036688,1.4640554040404774
2.71484375,1.6353714209665093,1.4098435920702421,1.608203390429235,1.5899153780048294,1.6684056242740903,1.6259816392267923,1.7457251369625633,1.5731105139923915
2.71875,1.8151514073463622,1.5643407318750526,1.5970861242565304,1.6851580968751956,1.5086738219120106,1.5114619900801516,1.3894259282623505,1.6784755509237033
2.72265625,1.3855488437966146,1.5477311071818491,1.56569934355811,1.6849080189806125,1.4515346034235745,1.7127036323264986,1.3891440856885495,1.42136388778257
2.7265625,1.3018368868836003,1.352921810007454,1.2258579538195717,1.4500713816025719,1.5038993803281908,1.289287481520613,1.4474686171717752,1.3285340734089874
2.73046875,1.1018691366831967,1.0828164893404153,1.1465013417918082,0.9968843844275922,1.0095234275764908,0.9917151514924172,1.0637443422098547,1.15927692188368
2.734375,0.8187828555967467,0.8848374345177679,0.9499948023486039,0.9700529346194362,0.8561343748691217,0.8139673061489366,0.903549934746103,0.8792040323198669
2.73828125,0.7029261352129555,0.6886196568083627,0.5253094845765907,0.5437570614565306,0.5225686703055953,0.7577759801766735,0.5778864223133358,0.4619385781277911
2.7421875,0.40647953385023183,0.43963112800058163,0.5668440425689797,0.36936802995798645,0.3575910189891243,0.3449874696301439,0.29426922912749853,0.49823966633099875
2.74609375,0.23120104872752748,0.26971827106603335,0.2035605311215185,0.10666765135031006,0.2834537928976854,0.19950755357882177,0.260364122270973,0.2378032638037213
2.75,-0.1301120271010305,0.010608531152699776,0.008784583488208899,-0.1922410057557069,-0.01588358780036548,0.15539598921544526,-0.21240653747813765,0.04755116382152776
2.75390625,-0.2106109983611948,0.007416142082834476,-0.13608961321675786,-0.1893261305134955,-0.02312634839899877,-0.3299384849876838,-0.08866046055909096,-0.1109002965469554
2.7578125,-0.4126296953136993,-0.50798911533338,-0.5069650875578033,-0.2591599050726402,-0.3339303872730631,-0.40050586866091564,-0.3504313842165465,-0.2801448231971963
2.76171875,-0.641206179122332,-0.6859626292905378,-0.670710803842622,-0.620919734987611,-0.5181046632058863,-0.5833611851952565,-0.69847169382034,-0.4755620707773049
2.765625,-0.7801469465102175,-0.9050870177350008,-0.7187289370530808,-0.8058329903493302,-0.8707849046541903,-0.8433141223927729,-0.8379511428029949,-0.8921043099927608
2.76953125,-1.1942084748191242,-1.074631550256488,-1.085803902588939,-1.291240987462511,-1.0988299844455658,-1.295049414902621,-1.1661184005474976,-1.0456261429031755
2.7734375,-1.2132941049733779,-1.1869950999828525,-1.3510127561644376,-1.2561136177637209,-1.460889451331557,-1.262296358302267,-1.462499890313723,-1.2733316065740896
2.77734375,-1.6743480289843355,-1.4634066432313166,-1.5553687616131373,-1.4796394843913456,-1.4805740069189781,-1.5231247652919129,-1.5775410599050974,-1.5517438238745884
2.78125,-1.658541363211412,-1.6208181980883793,-1.5638000979557263,-1.664223593376978,-1.7140566755057527,-1.600666963774236,-1.625584727585112,-1.5808583451478486
2.78515625,-1.6092562696903103,-1.5576020827488226,-1.49380766153585,-1.5222113111056954,-1.5556994004489766,-1.6767643779773955,-1.61651437802558,-1.5032282468487563
2.7890625,-1.4053628419552573,-1.5058123880163268,-1.3376758233330885,-1.5626163135481184,-1.5121703778809916,-1.3537145090035396,-1.4100858583245022,-1.4395861108377972
2.79296875,-1.2593444798410942,-1.2412028708730851,-1.2448214322127764,-1.150580464778128,-1.265015645749389,-1.2730308613450505,-1.090776591563388,-1.1562961349630978
2.796875,-0.8522661163799422,-0.9062029709325377,-0.7677268547676745,-0.7062190115732028,-0.7818874465519754,-0.7985550230471893,-0.7513763163514042,-0.7309375845015071
